74CSV  	
// AQ6374 OPTICAL SPECTRUM ANALYZER //                  
35
"CTRWL", 807.000000
"SPAN", 514.000000
"START WL", 550.000000
"STOP WL",1064.000000
"WLFREQ", 0
"REFL",-60.6
"LSCL", 2.9
"RESLN",1.000
"AVG",   1
"SMPLAUTO",      1
"SMPL",       2571
"SMPLINTVL",0.2000
"HIGH1"
"MEAS"
"LSUNT",0
"NMSKH","OFF"
"RESCOR",0
"SMOOTH",0
"MEASWL",1
"SWPSPD",0
"MODELNAME","AQ6374"
"CHGPT",        102
"RESCAL0_0",       9996
"RESCAL0_1",       -866
"RESCAL0_2",    1341521
"RESCAL1_0",      10053
"RESCAL1_1",          0
"RESCAL1_2",          0
"CORESIZE", 0






"[TRACE DATA]"
 550.0000,-210.000
 550.2000,-210.000
 550.4000, -76.983
 550.6000, -70.166
 550.8000, -74.573
 551.0000, -69.947
 551.2000,-210.000
 551.4000, -78.019
 551.6000,-210.000
 551.8000,-210.000
 552.0000,-210.000
 552.2000,-210.000
 552.4000,-210.000
 552.6000, -78.508
 552.8000, -73.358
 553.0000, -74.672
 553.2000, -68.958
 553.4000,-210.000
 553.6000,-210.000
 553.8000, -71.295
 554.0000, -70.552
 554.2000,-210.000
 554.4000, -89.351
 554.6000, -68.805
 554.8000, -73.687
 555.0000,-210.000
 555.2000,-210.000
 555.4000,-210.000
 555.6000, -71.362
 555.8000, -77.109
 556.0000,-210.000
 556.2000,-210.000
 556.4000,-210.000
 556.6000,-210.000
 556.8000, -72.422
 557.0000,-210.000
 557.2000,-210.000
 557.4000,-210.000
 557.6000,-210.000
 557.8000,-210.000
 558.0000,-210.000
 558.2000,-210.000
 558.4000,-210.000
 558.6000, -74.904
 558.8000, -66.871
 559.0000, -71.353
 559.2000, -70.912
 559.4000,-210.000
 559.6000,-210.000
 559.8000, -72.392
 560.0000,-210.000
 560.2000, -76.698
 560.4000,-210.000
 560.6000, -70.192
 560.8000, -69.700
 561.0000,-210.000
 561.2000,-210.000
 561.4000,-210.000
 561.6000,-210.000
 561.8000,-210.000
 562.0000, -74.180
 562.2000,-210.000
 562.4000,-210.000
 562.6000, -72.703
 562.8000, -76.484
 563.0000,-210.000
 563.2000, -70.358
 563.4000, -72.511
 563.6000,-210.000
 563.8000,-210.000
 564.0000,-210.000
 564.2000,-210.000
 564.4000,-210.000
 564.6000,-210.000
 564.8000,-210.000
 565.0000,-210.000
 565.2000,-210.000
 565.4000,-210.000
 565.6000,-210.000
 565.8000,-210.000
 566.0000, -74.357
 566.2000, -68.099
 566.4000,-210.000
 566.6000,-210.000
 566.8000,-210.000
 567.0000,-210.000
 567.2000, -69.628
 567.4000,-210.000
 567.6000,-210.000
 567.8000, -68.605
 568.0000,-210.000
 568.2000,-210.000
 568.4000,-210.000
 568.6000,-210.000
 568.8000, -68.766
 569.0000, -74.677
 569.2000,-210.000
 569.4000,-210.000
 569.6000,-210.000
 569.8000,-210.000
 570.0000,-210.000
 570.2000, -70.124
 570.4000, -78.425
 570.6000,-210.000
 570.8000,-210.000
 571.0000,-210.000
 571.2000,-210.000
 571.4000,-210.000
 571.6000,-210.000
 571.8000, -94.462
 572.0000,-210.000
 572.2000, -71.446
 572.4000,-210.000
 572.6000,-210.000
 572.8000,-210.000
 573.0000,-210.000
 573.2000, -79.757
 573.4000, -71.678
 573.6000, -87.315
 573.8000, -71.924
 574.0000, -71.333
 574.2000,-210.000
 574.4000, -69.753
 574.6000, -77.461
 574.8000, -83.242
 575.0000, -82.424
 575.2000, -74.663
 575.4000, -74.894
 575.6000,-210.000
 575.8000, -80.569
 576.0000,-210.000
 576.2000,-210.000
 576.4000,-210.000
 576.6000, -74.948
 576.8000,-210.000
 577.0000,-210.000
 577.2000,-210.000
 577.4000,-210.000
 577.6000, -71.818
 577.8000, -76.028
 578.0000,-210.000
 578.2000, -76.262
 578.4000, -81.411
 578.6000, -74.798
 578.8000,-210.000
 579.0000, -79.243
 579.2000, -76.802
 579.4000,-210.000
 579.6000, -83.788
 579.8000,-210.000
 580.0000,-210.000
 580.2000, -91.620
 580.4000, -75.237
 580.6000, -74.784
 580.8000,-210.000
 581.0000, -74.117
 581.2000,-210.000
 581.4000, -77.456
 581.6000, -71.740
 581.8000, -76.805
 582.0000,-210.000
 582.2000, -78.682
 582.4000,-210.000
 582.6000,-210.000
 582.8000, -87.231
 583.0000, -78.295
 583.2000, -72.286
 583.4000, -80.208
 583.6000,-210.000
 583.8000, -76.211
 584.0000,-210.000
 584.2000,-210.000
 584.4000,-210.000
 584.6000,-210.000
 584.8000,-210.000
 585.0000,-210.000
 585.2000, -88.131
 585.4000, -76.143
 585.6000,-210.000
 585.8000, -77.863
 586.0000,-210.000
 586.2000, -78.630
 586.4000, -75.881
 586.6000, -70.992
 586.8000, -70.628
 587.0000,-210.000
 587.2000,-210.000
 587.4000,-210.000
 587.6000,-210.000
 587.8000, -79.726
 588.0000, -70.956
 588.2000, -76.024
 588.4000, -76.042
 588.6000,-210.000
 588.8000,-210.000
 589.0000, -74.765
 589.2000,-210.000
 589.4000,-210.000
 589.6000, -81.306
 589.8000,-210.000
 590.0000, -72.540
 590.2000, -88.403
 590.4000, -70.618
 590.6000, -76.679
 590.8000, -72.389
 591.0000, -73.256
 591.2000, -81.726
 591.4000, -76.820
 591.6000, -80.225
 591.8000, -73.766
 592.0000,-210.000
 592.2000,-210.000
 592.4000,-210.000
 592.6000,-210.000
 592.8000,-210.000
 593.0000, -73.587
 593.2000,-210.000
 593.4000,-210.000
 593.6000, -73.663
 593.8000,-210.000
 594.0000, -73.811
 594.2000, -76.902
 594.4000,-210.000
 594.6000,-210.000
 594.8000,-210.000
 595.0000, -79.768
 595.2000,-210.000
 595.4000, -76.981
 595.6000, -74.340
 595.8000,-210.000
 596.0000,-210.000
 596.2000, -77.917
 596.4000,-210.000
 596.6000, -77.504
 596.8000,-210.000
 597.0000,-210.000
 597.2000,-210.000
 597.4000,-210.000
 597.6000, -79.769
 597.8000,-210.000
 598.0000, -80.064
 598.2000, -78.816
 598.4000, -79.634
 598.6000, -77.439
 598.8000, -87.462
 599.0000,-210.000
 599.2000, -78.771
 599.4000, -75.343
 599.6000,-210.000
 599.8000, -76.108
 600.0000,-210.000
 600.2000, -73.068
 600.4000, -73.492
 600.6000, -73.663
 600.8000, -83.424
 601.0000,-210.000
 601.2000, -75.205
 601.4000,-210.000
 601.6000, -78.221
 601.8000, -73.368
 602.0000,-210.000
 602.2000,-210.000
 602.4000,-210.000
 602.6000, -76.875
 602.8000,-210.000
 603.0000,-210.000
 603.2000,-210.000
 603.4000, -72.290
 603.6000, -75.960
 603.8000, -79.264
 604.0000, -78.960
 604.2000, -76.067
 604.4000, -75.290
 604.6000, -73.935
 604.8000, -76.291
 605.0000,-210.000
 605.2000, -74.661
 605.4000,-210.000
 605.6000, -74.242
 605.8000, -73.081
 606.0000, -72.872
 606.2000,-210.000
 606.4000,-210.000
 606.6000,-210.000
 606.8000, -70.936
 607.0000, -74.258
 607.2000,-210.000
 607.4000, -72.322
 607.6000, -72.997
 607.8000, -75.927
 608.0000, -81.041
 608.2000, -73.998
 608.4000, -73.595
 608.6000, -75.113
 608.8000, -73.947
 609.0000,-210.000
 609.2000,-210.000
 609.4000, -74.791
 609.6000,-210.000
 609.8000, -72.611
 610.0000,-210.000
 610.2000, -75.053
 610.4000,-210.000
 610.6000,-210.000
 610.8000, -87.900
 611.0000, -71.906
 611.2000, -78.469
 611.4000, -71.662
 611.6000, -74.739
 611.8000, -74.682
 612.0000, -75.087
 612.2000, -75.495
 612.4000, -73.180
 612.6000, -72.578
 612.8000, -77.177
 613.0000, -76.812
 613.2000, -77.827
 613.4000, -72.168
 613.6000, -75.162
 613.8000, -72.656
 614.0000, -75.979
 614.2000, -73.221
 614.4000, -75.717
 614.6000, -74.897
 614.8000, -70.396
 615.0000, -72.777
 615.2000, -71.608
 615.4000, -74.507
 615.6000, -71.601
 615.8000, -72.727
 616.0000, -72.958
 616.2000, -72.406
 616.4000, -76.690
 616.6000, -71.312
 616.8000, -73.142
 617.0000,-210.000
 617.2000, -75.131
 617.4000,-210.000
 617.6000, -75.679
 617.8000, -71.400
 618.0000, -75.293
 618.2000, -70.386
 618.4000, -70.818
 618.6000, -71.054
 618.8000, -73.313
 619.0000, -71.855
 619.2000, -71.948
 619.4000, -71.415
 619.6000, -72.950
 619.8000, -71.727
 620.0000, -70.427
 620.2000, -70.749
 620.4000, -73.931
 620.6000, -73.427
 620.8000, -72.993
 621.0000, -71.103
 621.2000, -70.553
 621.4000, -72.182
 621.6000, -74.267
 621.8000, -71.274
 622.0000, -71.329
 622.2000, -72.753
 622.4000, -74.462
 622.6000, -69.676
 622.8000, -69.189
 623.0000, -70.888
 623.2000, -70.663
 623.4000, -73.597
 623.6000, -73.954
 623.8000, -72.591
 624.0000, -68.937
 624.2000, -70.517
 624.4000, -69.442
 624.6000, -70.685
 624.8000, -71.267
 625.0000, -71.364
 625.2000, -72.855
 625.4000, -69.139
 625.6000, -69.810
 625.8000, -69.541
 626.0000, -68.693
 626.2000, -71.249
 626.4000, -69.539
 626.6000, -68.128
 626.8000, -68.399
 627.0000, -69.999
 627.2000, -69.121
 627.4000, -69.084
 627.6000, -69.109
 627.8000, -68.591
 628.0000, -68.493
 628.2000, -69.604
 628.4000, -68.712
 628.6000, -69.671
 628.8000, -68.330
 629.0000, -69.297
 629.2000, -68.557
 629.4000, -68.934
 629.6000, -68.982
 629.8000, -68.695
 630.0000, -68.598
 630.2000, -67.739
 630.4000, -68.415
 630.6000, -67.982
 630.8000, -69.478
 631.0000, -69.135
 631.2000, -68.343
 631.4000, -67.859
 631.6000, -67.756
 631.8000, -68.947
 632.0000, -68.447
 632.2000, -68.399
 632.4000, -68.407
 632.6000, -69.494
 632.8000, -67.414
 633.0000, -68.183
 633.2000, -67.979
 633.4000, -68.182
 633.6000, -68.353
 633.8000, -67.358
 634.0000, -66.721
 634.2000, -67.513
 634.4000, -67.664
 634.6000, -67.352
 634.8000, -67.794
 635.0000, -67.357
 635.2000, -66.749
 635.4000, -66.694
 635.6000, -66.923
 635.8000, -66.529
 636.0000, -66.249
 636.2000, -66.814
 636.4000, -66.710
 636.6000, -66.789
 636.8000, -67.538
 637.0000, -67.242
 637.2000, -66.425
 637.4000, -67.348
 637.6000, -66.679
 637.8000, -66.496
 638.0000, -67.828
 638.2000, -67.663
 638.4000, -66.822
 638.6000, -66.118
 638.8000, -66.802
 639.0000, -66.661
 639.2000, -66.725
 639.4000, -66.590
 639.6000, -67.188
 639.8000, -66.357
 640.0000, -67.449
 640.2000, -66.975
 640.4000, -66.213
 640.6000, -65.887
 640.8000, -67.032
 641.0000, -66.077
 641.2000, -65.954
 641.4000, -66.448
 641.6000, -65.862
 641.8000, -66.100
 642.0000, -65.908
 642.2000, -66.366
 642.4000, -65.856
 642.6000, -66.321
 642.8000, -66.805
 643.0000, -66.177
 643.2000, -66.364
 643.4000, -65.425
 643.6000, -66.141
 643.8000, -66.068
 644.0000, -66.559
 644.2000, -65.774
 644.4000, -65.981
 644.6000, -66.232
 644.8000, -65.227
 645.0000, -65.784
 645.2000, -65.815
 645.4000, -65.622
 645.6000, -65.641
 645.8000, -66.008
 646.0000, -65.817
 646.2000, -65.230
 646.4000, -65.395
 646.6000, -66.028
 646.8000, -66.144
 647.0000, -65.989
 647.2000, -65.335
 647.4000, -64.935
 647.6000, -65.246
 647.8000, -65.305
 648.0000, -65.434
 648.2000, -65.195
 648.4000, -65.293
 648.6000, -65.257
 648.8000, -65.906
 649.0000, -65.048
 649.2000, -64.934
 649.4000, -65.063
 649.6000, -65.475
 649.8000, -65.625
 650.0000, -65.380
 650.2000, -65.243
 650.4000, -65.159
 650.6000, -64.992
 650.8000, -65.632
 651.0000, -65.097
 651.2000, -64.812
 651.4000, -65.232
 651.6000, -65.091
 651.8000, -65.183
 652.0000, -65.046
 652.2000, -64.922
 652.4000, -65.060
 652.6000, -64.973
 652.8000, -64.808
 653.0000, -64.844
 653.2000, -64.963
 653.4000, -64.897
 653.6000, -64.812
 653.8000, -64.945
 654.0000, -64.784
 654.2000, -64.646
 654.4000, -64.642
 654.6000, -64.851
 654.8000, -64.315
 655.0000, -64.613
 655.2000, -64.622
 655.4000, -64.441
 655.6000, -64.238
 655.8000, -64.501
 656.0000, -64.441
 656.2000, -64.562
 656.4000, -64.755
 656.6000, -64.537
 656.8000, -64.408
 657.0000, -64.596
 657.2000, -64.156
 657.4000, -64.174
 657.6000, -64.224
 657.8000, -64.357
 658.0000, -64.418
 658.2000, -64.807
 658.4000, -64.333
 658.6000, -64.316
 658.8000, -64.145
 659.0000, -63.956
 659.2000, -63.968
 659.4000, -64.400
 659.6000, -64.330
 659.8000, -64.112
 660.0000, -64.212
 660.2000, -64.095
 660.4000, -64.180
 660.6000, -63.929
 660.8000, -63.879
 661.0000, -64.237
 661.2000, -63.914
 661.4000, -63.985
 661.6000, -63.792
 661.8000, -64.086
 662.0000, -64.108
 662.2000, -64.239
 662.4000, -64.087
 662.6000, -64.087
 662.8000, -63.721
 663.0000, -63.813
 663.2000, -63.786
 663.4000, -63.934
 663.6000, -64.058
 663.8000, -63.692
 664.0000, -63.792
 664.2000, -63.850
 664.4000, -63.812
 664.6000, -63.579
 664.8000, -63.606
 665.0000, -64.144
 665.2000, -63.838
 665.4000, -63.757
 665.6000, -63.635
 665.8000, -63.457
 666.0000, -63.691
 666.2000, -63.795
 666.4000, -63.667
 666.6000, -63.699
 666.8000, -63.378
 667.0000, -63.567
 667.2000, -63.792
 667.4000, -63.685
 667.6000, -63.773
 667.8000, -63.541
 668.0000, -63.419
 668.2000, -63.398
 668.4000, -63.597
 668.6000, -63.546
 668.8000, -63.867
 669.0000, -63.533
 669.2000, -63.593
 669.4000, -63.674
 669.6000, -63.679
 669.8000, -63.512
 670.0000, -63.561
 670.2000, -63.541
 670.4000, -63.424
 670.6000, -63.637
 670.8000, -63.682
 671.0000, -63.480
 671.2000, -63.216
 671.4000, -63.379
 671.6000, -63.255
 671.8000, -63.362
 672.0000, -63.288
 672.2000, -63.422
 672.4000, -63.466
 672.6000, -63.326
 672.8000, -63.380
 673.0000, -63.246
 673.2000, -63.236
 673.4000, -63.229
 673.6000, -63.488
 673.8000, -63.444
 674.0000, -63.438
 674.2000, -63.692
 674.4000, -63.867
 674.6000, -63.461
 674.8000, -63.314
 675.0000, -63.425
 675.2000, -63.563
 675.4000, -63.389
 675.6000, -63.330
 675.8000, -63.219
 676.0000, -63.240
 676.2000, -63.267
 676.4000, -63.438
 676.6000, -63.456
 676.8000, -63.270
 677.0000, -63.506
 677.2000, -63.441
 677.4000, -63.651
 677.6000, -63.528
 677.8000, -63.409
 678.0000, -63.567
 678.2000, -63.254
 678.4000, -63.225
 678.6000, -63.258
 678.8000, -63.265
 679.0000, -63.425
 679.2000, -63.505
 679.4000, -63.417
 679.6000, -63.239
 679.8000, -63.143
 680.0000, -63.051
 680.2000, -63.189
 680.4000, -63.243
 680.6000, -63.558
 680.8000, -63.397
 681.0000, -63.307
 681.2000, -63.271
 681.4000, -63.346
 681.6000, -63.510
 681.8000, -63.484
 682.0000, -63.489
 682.2000, -63.400
 682.4000, -63.254
 682.6000, -63.078
 682.8000, -63.258
 683.0000, -63.496
 683.2000, -63.254
 683.4000, -63.343
 683.6000, -63.650
 683.8000, -63.142
 684.0000, -63.441
 684.2000, -63.621
 684.4000, -63.683
 684.6000, -63.315
 684.8000, -63.204
 685.0000, -63.527
 685.2000, -63.556
 685.4000, -63.552
 685.6000, -63.211
 685.8000, -63.369
 686.0000, -63.494
 686.2000, -63.660
 686.4000, -63.461
 686.6000, -63.420
 686.8000, -63.545
 687.0000, -63.669
 687.2000, -63.589
 687.4000, -63.418
 687.6000, -63.613
 687.8000, -63.599
 688.0000, -63.724
 688.2000, -63.649
 688.4000, -63.468
 688.6000, -63.210
 688.8000, -63.442
 689.0000, -63.460
 689.2000, -63.480
 689.4000, -63.710
 689.6000, -63.432
 689.8000, -63.708
 690.0000, -63.677
 690.2000, -63.460
 690.4000, -63.643
 690.6000, -63.709
 690.8000, -63.597
 691.0000, -63.406
 691.2000, -63.695
 691.4000, -63.793
 691.6000, -63.811
 691.8000, -63.568
 692.0000, -63.710
 692.2000, -63.678
 692.4000, -63.624
 692.6000, -63.602
 692.8000, -63.724
 693.0000, -63.645
 693.2000, -63.690
 693.4000, -63.614
 693.6000, -63.926
 693.8000, -63.897
 694.0000, -63.736
 694.2000, -63.809
 694.4000, -64.056
 694.6000, -63.907
 694.8000, -63.506
 695.0000, -63.970
 695.2000, -63.892
 695.4000, -63.909
 695.6000, -63.707
 695.8000, -63.823
 696.0000, -63.939
 696.2000, -63.869
 696.4000, -64.008
 696.6000, -63.844
 696.8000, -63.871
 697.0000, -63.881
 697.2000, -64.075
 697.4000, -63.910
 697.6000, -63.999
 697.8000, -64.253
 698.0000, -64.193
 698.2000, -64.060
 698.4000, -63.875
 698.6000, -64.193
 698.8000, -64.115
 699.0000, -63.986
 699.2000, -63.722
 699.4000, -64.016
 699.6000, -63.960
 699.8000, -64.010
 700.0000, -63.979
 700.2000, -63.777
 700.4000, -64.034
 700.6000, -64.427
 700.8000, -63.787
 701.0000, -63.712
 701.2000, -64.264
 701.4000, -64.077
 701.6000, -64.141
 701.8000, -64.127
 702.0000, -64.044
 702.2000, -64.319
 702.4000, -64.265
 702.6000, -64.277
 702.8000, -64.131
 703.0000, -64.284
 703.2000, -64.383
 703.4000, -64.288
 703.6000, -63.999
 703.8000, -64.391
 704.0000, -64.278
 704.2000, -64.154
 704.4000, -64.446
 704.6000, -64.722
 704.8000, -64.300
 705.0000, -64.386
 705.2000, -64.441
 705.4000, -64.293
 705.6000, -64.204
 705.8000, -64.026
 706.0000, -64.792
 706.2000, -64.124
 706.4000, -64.362
 706.6000, -64.366
 706.8000, -64.430
 707.0000, -64.050
 707.2000, -64.388
 707.4000, -64.681
 707.6000, -64.755
 707.8000, -64.640
 708.0000, -64.482
 708.2000, -64.644
 708.4000, -64.191
 708.6000, -64.354
 708.8000, -64.470
 709.0000, -64.600
 709.2000, -64.343
 709.4000, -64.438
 709.6000, -64.494
 709.8000, -64.410
 710.0000, -65.047
 710.2000, -64.396
 710.4000, -64.411
 710.6000, -64.790
 710.8000, -64.443
 711.0000, -64.487
 711.2000, -64.572
 711.4000, -64.512
 711.6000, -64.617
 711.8000, -64.465
 712.0000, -64.332
 712.2000, -64.760
 712.4000, -64.874
 712.6000, -64.892
 712.8000, -64.695
 713.0000, -64.967
 713.2000, -64.515
 713.4000, -64.378
 713.6000, -64.209
 713.8000, -64.599
 714.0000, -64.741
 714.2000, -64.432
 714.4000, -64.747
 714.6000, -64.519
 714.8000, -64.761
 715.0000, -64.997
 715.2000, -64.653
 715.4000, -64.740
 715.6000, -64.508
 715.8000, -64.894
 716.0000, -64.542
 716.2000, -64.781
 716.4000, -65.008
 716.6000, -64.890
 716.8000, -64.601
 717.0000, -64.836
 717.2000, -64.754
 717.4000, -64.902
 717.6000, -64.998
 717.8000, -64.661
 718.0000, -64.637
 718.2000, -64.931
 718.4000, -64.880
 718.6000, -64.846
 718.8000, -64.654
 719.0000, -64.536
 719.2000, -64.852
 719.4000, -65.098
 719.6000, -64.972
 719.8000, -64.758
 720.0000, -64.915
 720.2000, -64.804
 720.4000, -64.740
 720.6000, -64.730
 720.8000, -64.793
 721.0000, -64.706
 721.2000, -64.473
 721.4000, -64.452
 721.6000, -64.656
 721.8000, -64.864
 722.0000, -64.934
 722.2000, -64.605
 722.4000, -65.028
 722.6000, -65.029
 722.8000, -64.811
 723.0000, -65.002
 723.2000, -65.050
 723.4000, -64.740
 723.6000, -64.742
 723.8000, -64.906
 724.0000, -65.148
 724.2000, -64.854
 724.4000, -64.760
 724.6000, -64.896
 724.8000, -64.874
 725.0000, -64.979
 725.2000, -64.736
 725.4000, -64.995
 725.6000, -64.788
 725.8000, -64.600
 726.0000, -64.970
 726.2000, -65.019
 726.4000, -64.926
 726.6000, -65.556
 726.8000, -65.042
 727.0000, -65.144
 727.2000, -64.835
 727.4000, -64.872
 727.6000, -64.971
 727.8000, -65.089
 728.0000, -64.973
 728.2000, -65.279
 728.4000, -65.062
 728.6000, -64.848
 728.8000, -65.114
 729.0000, -65.136
 729.2000, -64.879
 729.4000, -64.786
 729.6000, -65.147
 729.8000, -65.063
 730.0000, -65.160
 730.2000, -65.048
 730.4000, -64.970
 730.6000, -64.807
 730.8000, -64.734
 731.0000, -64.988
 731.2000, -65.214
 731.4000, -65.391
 731.6000, -64.952
 731.8000, -65.171
 732.0000, -65.355
 732.2000, -65.144
 732.4000, -65.045
 732.6000, -65.005
 732.8000, -65.498
 733.0000, -65.041
 733.2000, -65.313
 733.4000, -65.049
 733.6000, -65.376
 733.8000, -64.947
 734.0000, -65.220
 734.2000, -64.856
 734.4000, -65.029
 734.6000, -65.033
 734.8000, -64.877
 735.0000, -65.243
 735.2000, -65.160
 735.4000, -65.110
 735.6000, -64.847
 735.8000, -65.118
 736.0000, -65.093
 736.2000, -65.163
 736.4000, -65.071
 736.6000, -64.902
 736.8000, -65.229
 737.0000, -65.057
 737.2000, -65.137
 737.4000, -65.297
 737.6000, -65.244
 737.8000, -65.104
 738.0000, -65.194
 738.2000, -64.921
 738.4000, -65.086
 738.6000, -65.144
 738.8000, -65.016
 739.0000, -65.521
 739.2000, -65.028
 739.4000, -65.335
 739.6000, -65.014
 739.8000, -65.415
 740.0000, -65.435
 740.2000, -65.109
 740.4000, -65.108
 740.6000, -65.211
 740.8000, -65.373
 741.0000, -65.275
 741.2000, -65.244
 741.4000, -65.351
 741.6000, -65.493
 741.8000, -65.748
 742.0000, -65.549
 742.2000, -65.372
 742.4000, -65.087
 742.6000, -65.136
 742.8000, -65.247
 743.0000, -65.384
 743.2000, -65.309
 743.4000, -65.272
 743.6000, -65.761
