74CSV  	
// AQ6374 OPTICAL SPECTRUM ANALYZER //                  
35
"CTRWL", 807.000000
"SPAN", 514.000000
"START WL", 550.000000
"STOP WL",1064.000000
"WLFREQ", 0
"REFL",-44.6
"LSCL", 2.9
"RESLN",1.000
"AVG",   1
"SMPLAUTO",      1
"SMPL",       2571
"SMPLINTVL",0.2000
"HIGH1"
"MEAS"
"LSUNT",0
"NMSKH","OFF"
"RESCOR",0
"SMOOTH",0
"MEASWL",1
"SWPSPD",0
"MODELNAME","AQ6374"
"CHGPT",        102
"RESCAL0_0",       9996
"RESCAL0_1",       -866
"RESCAL0_2",    1341521
"RESCAL1_0",      10053
"RESCAL1_1",          0
"RESCAL1_2",          0
"CORESIZE", 0






"[TRACE DATA]"
 550.0000,-210.000
 550.2000,-210.000
 550.4000, -77.521
 550.6000,-210.000
 550.8000, -68.981
 551.0000, -68.702
 551.2000, -73.138
 551.4000, -70.076
 551.6000, -75.121
 551.8000,-210.000
 552.0000,-210.000
 552.2000, -68.802
 552.4000, -71.738
 552.6000, -69.222
 552.8000,-210.000
 553.0000, -71.011
 553.2000, -73.038
 553.4000, -70.839
 553.6000, -70.640
 553.8000, -69.442
 554.0000,-210.000
 554.2000,-210.000
 554.4000, -68.247
 554.6000,-210.000
 554.8000,-210.000
 555.0000, -69.900
 555.2000, -70.376
 555.4000, -71.995
 555.6000, -71.000
 555.8000,-210.000
 556.0000, -69.313
 556.2000, -75.937
 556.4000, -67.440
 556.6000, -72.261
 556.8000, -70.422
 557.0000,-210.000
 557.2000,-210.000
 557.4000, -69.918
 557.6000,-210.000
 557.8000, -68.666
 558.0000, -80.059
 558.2000,-210.000
 558.4000, -69.421
 558.6000, -75.141
 558.8000, -67.787
 559.0000, -77.319
 559.2000, -70.574
 559.4000, -70.851
 559.6000, -76.853
 559.8000, -80.979
 560.0000, -68.296
 560.2000, -69.293
 560.4000,-210.000
 560.6000, -72.106
 560.8000, -70.741
 561.0000, -71.317
 561.2000, -69.413
 561.4000, -75.789
 561.6000, -68.507
 561.8000,-210.000
 562.0000,-210.000
 562.2000, -65.427
 562.4000, -70.303
 562.6000, -71.607
 562.8000, -70.843
 563.0000, -73.356
 563.2000, -66.816
 563.4000, -69.753
 563.6000,-210.000
 563.8000, -71.688
 564.0000, -72.037
 564.2000,-210.000
 564.4000, -69.578
 564.6000, -72.563
 564.8000,-210.000
 565.0000,-210.000
 565.2000, -67.260
 565.4000, -68.812
 565.6000, -67.620
 565.8000,-210.000
 566.0000, -87.496
 566.2000, -66.962
 566.4000, -70.494
 566.6000,-210.000
 566.8000, -70.464
 567.0000, -69.075
 567.2000, -68.518
 567.4000,-210.000
 567.6000, -71.152
 567.8000, -70.306
 568.0000, -68.082
 568.2000, -68.503
 568.4000, -71.924
 568.6000, -66.386
 568.8000, -67.527
 569.0000, -73.649
 569.2000, -72.563
 569.4000, -78.046
 569.6000, -65.363
 569.8000, -67.195
 570.0000, -70.488
 570.2000, -67.457
 570.4000, -65.599
 570.6000, -66.133
 570.8000, -69.314
 571.0000, -70.426
 571.2000, -67.624
 571.4000, -66.185
 571.6000, -67.096
 571.8000, -66.304
 572.0000, -70.440
 572.2000, -71.433
 572.4000, -68.768
 572.6000, -66.406
 572.8000, -68.233
 573.0000, -67.265
 573.2000, -68.624
 573.4000, -65.704
 573.6000, -68.316
 573.8000, -66.090
 574.0000, -68.788
 574.2000, -66.463
 574.4000, -67.261
 574.6000, -66.493
 574.8000, -67.422
 575.0000, -65.913
 575.2000, -67.186
 575.4000, -66.978
 575.6000, -66.401
 575.8000, -64.709
 576.0000, -65.761
 576.2000, -66.708
 576.4000, -66.219
 576.6000, -66.089
 576.8000, -65.542
 577.0000, -65.739
 577.2000, -66.135
 577.4000, -65.774
 577.6000, -65.326
 577.8000, -66.725
 578.0000, -67.255
 578.2000, -65.401
 578.4000, -65.942
 578.6000, -64.700
 578.8000, -65.889
 579.0000, -66.229
 579.2000, -65.328
 579.4000, -65.732
 579.6000, -64.974
 579.8000, -66.046
 580.0000, -65.507
 580.2000, -65.430
 580.4000, -64.580
 580.6000, -64.742
 580.8000, -65.796
 581.0000, -65.534
 581.2000, -64.789
 581.4000, -64.895
 581.6000, -64.821
 581.8000, -64.900
 582.0000, -64.576
 582.2000, -65.661
 582.4000, -64.659
 582.6000, -64.576
 582.8000, -65.079
 583.0000, -64.542
 583.2000, -63.657
 583.4000, -63.719
 583.6000, -64.597
 583.8000, -65.459
 584.0000, -64.298
 584.2000, -63.867
 584.4000, -64.281
 584.6000, -64.030
 584.8000, -62.785
 585.0000, -63.521
 585.2000, -63.784
 585.4000, -63.399
 585.6000, -63.769
 585.8000, -63.084
 586.0000, -62.956
 586.2000, -63.235
 586.4000, -63.752
 586.6000, -63.425
 586.8000, -62.846
 587.0000, -63.489
 587.2000, -63.326
 587.4000, -63.352
 587.6000, -63.480
 587.8000, -63.319
 588.0000, -62.829
 588.2000, -63.102
 588.4000, -62.372
 588.6000, -62.756
 588.8000, -62.723
 589.0000, -62.618
 589.2000, -63.179
 589.4000, -62.813
 589.6000, -61.805
 589.8000, -62.370
 590.0000, -62.383
 590.2000, -62.140
 590.4000, -62.840
 590.6000, -61.968
 590.8000, -61.895
 591.0000, -62.006
 591.2000, -62.138
 591.4000, -62.061
 591.6000, -61.866
 591.8000, -62.206
 592.0000, -62.756
 592.2000, -61.604
 592.4000, -61.856
 592.6000, -61.790
 592.8000, -61.641
 593.0000, -61.672
 593.2000, -61.517
 593.4000, -61.427
 593.6000, -60.929
 593.8000, -61.064
 594.0000, -61.412
 594.2000, -61.128
 594.4000, -61.048
 594.6000, -60.849
 594.8000, -60.910
 595.0000, -60.876
 595.2000, -60.596
 595.4000, -60.392
 595.6000, -60.789
 595.8000, -60.875
 596.0000, -61.140
 596.2000, -60.488
 596.4000, -60.532
 596.6000, -60.852
 596.8000, -60.680
 597.0000, -60.466
 597.2000, -60.571
 597.4000, -60.458
 597.6000, -60.200
 597.8000, -60.581
 598.0000, -60.334
 598.2000, -60.079
 598.4000, -60.088
 598.6000, -60.206
 598.8000, -59.793
 599.0000, -60.096
 599.2000, -59.887
 599.4000, -60.042
 599.6000, -59.822
 599.8000, -59.724
 600.0000, -59.635
 600.2000, -59.503
 600.4000, -59.363
 600.6000, -59.548
 600.8000, -59.478
 601.0000, -59.348
 601.2000, -59.304
 601.4000, -59.306
 601.6000, -59.536
 601.8000, -59.134
 602.0000, -59.452
 602.2000, -59.173
 602.4000, -59.141
 602.6000, -59.082
 602.8000, -59.046
 603.0000, -58.946
 603.2000, -58.976
 603.4000, -58.886
 603.6000, -58.820
 603.8000, -58.815
 604.0000, -58.884
 604.2000, -58.779
 604.4000, -58.807
 604.6000, -58.800
 604.8000, -58.385
 605.0000, -58.606
 605.2000, -58.227
 605.4000, -58.117
 605.6000, -58.293
 605.8000, -57.961
 606.0000, -58.056
 606.2000, -58.126
 606.4000, -57.976
 606.6000, -57.889
 606.8000, -58.056
 607.0000, -58.067
 607.2000, -58.031
 607.4000, -57.805
 607.6000, -57.796
 607.8000, -57.661
 608.0000, -57.729
 608.2000, -57.623
 608.4000, -57.606
 608.6000, -57.581
 608.8000, -57.628
 609.0000, -57.482
 609.2000, -57.406
 609.4000, -57.457
 609.6000, -57.194
 609.8000, -57.368
 610.0000, -57.275
 610.2000, -57.224
 610.4000, -57.140
 610.6000, -56.991
 610.8000, -56.752
 611.0000, -56.841
 611.2000, -56.922
 611.4000, -56.684
 611.6000, -56.888
 611.8000, -56.627
 612.0000, -56.562
 612.2000, -56.650
 612.4000, -56.400
 612.6000, -56.321
 612.8000, -56.496
 613.0000, -56.309
 613.2000, -56.494
 613.4000, -56.282
 613.6000, -56.045
 613.8000, -56.197
 614.0000, -56.061
 614.2000, -56.158
 614.4000, -55.988
 614.6000, -56.120
 614.8000, -55.991
 615.0000, -55.920
 615.2000, -55.787
 615.4000, -55.817
 615.6000, -55.781
 615.8000, -55.716
 616.0000, -55.543
 616.2000, -55.579
 616.4000, -55.556
 616.6000, -55.373
 616.8000, -55.311
 617.0000, -55.180
 617.2000, -55.210
 617.4000, -55.271
 617.6000, -55.167
 617.8000, -55.056
 618.0000, -55.086
 618.2000, -55.099
 618.4000, -55.071
 618.6000, -54.891
 618.8000, -54.899
 619.0000, -54.737
 619.2000, -54.639
 619.4000, -54.753
 619.6000, -54.698
 619.8000, -54.620
 620.0000, -54.388
 620.2000, -54.536
 620.4000, -54.433
 620.6000, -54.409
 620.8000, -54.327
 621.0000, -54.492
 621.2000, -54.287
 621.4000, -54.293
 621.6000, -54.189
 621.8000, -54.075
 622.0000, -54.115
 622.2000, -54.157
 622.4000, -54.195
 622.6000, -53.969
 622.8000, -53.977
 623.0000, -53.771
 623.2000, -53.863
 623.4000, -53.664
 623.6000, -53.777
 623.8000, -53.529
 624.0000, -53.561
 624.2000, -53.648
 624.4000, -53.404
 624.6000, -53.482
 624.8000, -53.333
 625.0000, -53.435
 625.2000, -53.246
 625.4000, -53.276
 625.6000, -53.089
 625.8000, -53.115
 626.0000, -53.009
 626.2000, -52.938
 626.4000, -52.896
 626.6000, -52.860
 626.8000, -52.994
 627.0000, -52.844
 627.2000, -52.827
 627.4000, -52.787
 627.6000, -52.805
 627.8000, -52.687
 628.0000, -52.607
 628.2000, -52.566
 628.4000, -52.552
 628.6000, -52.515
 628.8000, -52.485
 629.0000, -52.473
 629.2000, -52.393
 629.4000, -52.251
 629.6000, -52.188
 629.8000, -52.217
 630.0000, -52.148
 630.2000, -52.135
 630.4000, -52.150
 630.6000, -52.044
 630.8000, -51.844
 631.0000, -52.061
 631.2000, -51.919
 631.4000, -51.956
 631.6000, -51.889
 631.8000, -51.850
 632.0000, -51.812
 632.2000, -51.747
 632.4000, -51.733
 632.6000, -51.611
 632.8000, -51.572
 633.0000, -51.506
 633.2000, -51.499
 633.4000, -51.506
 633.6000, -51.505
 633.8000, -51.364
 634.0000, -51.447
 634.2000, -51.316
 634.4000, -51.277
 634.6000, -51.282
 634.8000, -51.085
 635.0000, -51.215
 635.2000, -50.978
 635.4000, -51.088
 635.6000, -50.962
 635.8000, -51.094
 636.0000, -51.070
 636.2000, -50.920
 636.4000, -50.821
 636.6000, -50.752
 636.8000, -50.879
 637.0000, -50.930
 637.2000, -50.805
 637.4000, -50.618
 637.6000, -50.682
 637.8000, -50.595
 638.0000, -50.522
 638.2000, -50.608
 638.4000, -50.553
 638.6000, -50.521
 638.8000, -50.459
 639.0000, -50.322
 639.2000, -50.439
 639.4000, -50.340
 639.6000, -50.351
 639.8000, -50.328
 640.0000, -50.295
 640.2000, -50.393
 640.4000, -50.122
 640.6000, -50.232
 640.8000, -50.229
 641.0000, -50.194
 641.2000, -50.077
 641.4000, -50.146
 641.6000, -50.093
 641.8000, -50.077
 642.0000, -50.012
 642.2000, -49.983
 642.4000, -49.867
 642.6000, -50.043
 642.8000, -49.923
 643.0000, -49.756
 643.2000, -49.640
 643.4000, -49.647
 643.6000, -49.778
 643.8000, -49.669
 644.0000, -49.724
 644.2000, -49.767
 644.4000, -49.644
 644.6000, -49.612
 644.8000, -49.526
 645.0000, -49.555
 645.2000, -49.635
 645.4000, -49.520
 645.6000, -49.495
 645.8000, -49.456
 646.0000, -49.328
 646.2000, -49.378
 646.4000, -49.333
 646.6000, -49.325
 646.8000, -49.295
 647.0000, -49.263
 647.2000, -49.437
 647.4000, -49.259
 647.6000, -49.280
 647.8000, -49.152
 648.0000, -49.271
 648.2000, -49.165
 648.4000, -49.084
 648.6000, -49.147
 648.8000, -49.360
 649.0000, -49.079
 649.2000, -49.224
 649.4000, -49.058
 649.6000, -49.107
 649.8000, -48.899
 650.0000, -48.988
 650.2000, -48.922
 650.4000, -48.971
 650.6000, -48.955
 650.8000, -48.952
 651.0000, -48.898
 651.2000, -48.792
 651.4000, -48.800
 651.6000, -48.763
 651.8000, -48.798
 652.0000, -48.882
 652.2000, -48.679
 652.4000, -48.720
 652.6000, -48.638
 652.8000, -48.623
 653.0000, -48.573
 653.2000, -48.605
 653.4000, -48.665
 653.6000, -48.652
 653.8000, -48.540
 654.0000, -48.581
 654.2000, -48.592
 654.4000, -48.592
 654.6000, -48.548
 654.8000, -48.663
 655.0000, -48.434
 655.2000, -48.440
 655.4000, -48.429
 655.6000, -48.488
 655.8000, -48.521
 656.0000, -48.492
 656.2000, -48.500
 656.4000, -48.415
 656.6000, -48.404
 656.8000, -48.370
 657.0000, -48.277
 657.2000, -48.372
 657.4000, -48.370
 657.6000, -48.285
 657.8000, -48.286
 658.0000, -48.426
 658.2000, -48.295
 658.4000, -48.262
 658.6000, -48.106
 658.8000, -48.272
 659.0000, -48.084
 659.2000, -48.232
 659.4000, -48.148
 659.6000, -48.156
 659.8000, -48.085
 660.0000, -48.212
 660.2000, -48.149
 660.4000, -48.071
 660.6000, -48.179
 660.8000, -48.102
 661.0000, -48.112
 661.2000, -48.090
 661.4000, -48.232
 661.6000, -48.109
 661.8000, -47.959
 662.0000, -47.936
 662.2000, -47.947
 662.4000, -48.012
 662.6000, -47.894
 662.8000, -48.044
 663.0000, -48.014
 663.2000, -47.932
 663.4000, -47.956
 663.6000, -47.910
 663.8000, -47.901
 664.0000, -47.796
 664.2000, -47.737
 664.4000, -47.788
 664.6000, -47.911
 664.8000, -47.942
 665.0000, -47.748
 665.2000, -47.810
 665.4000, -47.683
 665.6000, -47.790
 665.8000, -47.786
 666.0000, -47.700
 666.2000, -47.754
 666.4000, -47.750
 666.6000, -47.695
 666.8000, -47.805
 667.0000, -47.659
 667.2000, -47.761
 667.4000, -47.593
 667.6000, -47.562
 667.8000, -47.727
 668.0000, -47.566
 668.2000, -47.762
 668.4000, -47.752
 668.6000, -47.583
 668.8000, -47.744
 669.0000, -47.588
 669.2000, -47.649
 669.4000, -47.696
 669.6000, -47.628
 669.8000, -47.759
 670.0000, -47.465
 670.2000, -47.585
 670.4000, -47.534
 670.6000, -47.583
 670.8000, -47.566
 671.0000, -47.562
 671.2000, -47.571
 671.4000, -47.569
 671.6000, -47.545
 671.8000, -47.542
 672.0000, -47.485
 672.2000, -47.539
 672.4000, -47.590
 672.6000, -47.392
 672.8000, -47.494
 673.0000, -47.411
 673.2000, -47.554
 673.4000, -47.584
 673.6000, -47.495
 673.8000, -47.376
 674.0000, -47.525
 674.2000, -47.444
 674.4000, -47.616
 674.6000, -47.544
 674.8000, -47.480
 675.0000, -47.471
 675.2000, -47.524
 675.4000, -47.516
 675.6000, -47.395
 675.8000, -47.479
 676.0000, -47.466
 676.2000, -47.420
 676.4000, -47.432
 676.6000, -47.444
 676.8000, -47.497
 677.0000, -47.439
 677.2000, -47.494
 677.4000, -47.391
 677.6000, -47.434
 677.8000, -47.427
 678.0000, -47.480
 678.2000, -47.417
 678.4000, -47.352
 678.6000, -47.364
 678.8000, -47.391
 679.0000, -47.415
 679.2000, -47.484
 679.4000, -47.341
 679.6000, -47.377
 679.8000, -47.290
 680.0000, -47.358
 680.2000, -47.313
 680.4000, -47.433
 680.6000, -47.290
 680.8000, -47.325
 681.0000, -47.301
 681.2000, -47.349
 681.4000, -47.250
 681.6000, -47.335
 681.8000, -47.258
 682.0000, -47.186
 682.2000, -47.227
 682.4000, -47.252
 682.6000, -47.308
 682.8000, -47.305
 683.0000, -47.320
 683.2000, -47.249
 683.4000, -47.248
 683.6000, -47.286
 683.8000, -47.292
 684.0000, -47.382
 684.2000, -47.391
 684.4000, -47.249
 684.6000, -47.313
 684.8000, -47.278
 685.0000, -47.318
 685.2000, -47.287
 685.4000, -47.289
 685.6000, -47.334
 685.8000, -47.407
 686.0000, -47.349
 686.2000, -47.248
 686.4000, -47.325
 686.6000, -47.251
 686.8000, -47.340
 687.0000, -47.191
 687.2000, -47.348
 687.4000, -47.336
 687.6000, -47.400
 687.8000, -47.433
 688.0000, -47.324
 688.2000, -47.301
 688.4000, -47.186
 688.6000, -47.253
 688.8000, -47.223
 689.0000, -47.345
 689.2000, -47.316
 689.4000, -47.158
 689.6000, -47.292
 689.8000, -47.292
 690.0000, -47.400
 690.2000, -47.340
 690.4000, -47.249
 690.6000, -47.206
 690.8000, -47.281
 691.0000, -47.310
 691.2000, -47.318
 691.4000, -47.316
 691.6000, -47.299
 691.8000, -47.340
 692.0000, -47.334
 692.2000, -47.279
 692.4000, -47.320
 692.6000, -47.343
 692.8000, -47.338
 693.0000, -47.259
 693.2000, -47.343
 693.4000, -47.349
 693.6000, -47.328
 693.8000, -47.253
 694.0000, -47.343
 694.2000, -47.313
 694.4000, -47.242
 694.6000, -47.354
 694.8000, -47.342
 695.0000, -47.332
 695.2000, -47.289
 695.4000, -47.336
 695.6000, -47.344
 695.8000, -47.401
 696.0000, -47.313
 696.2000, -47.330
 696.4000, -47.267
 696.6000, -47.303
 696.8000, -47.328
 697.0000, -47.365
 697.2000, -47.421
 697.4000, -47.438
 697.6000, -47.379
 697.8000, -47.351
 698.0000, -47.291
 698.2000, -47.415
 698.4000, -47.457
 698.6000, -47.491
 698.8000, -47.457
 699.0000, -47.463
 699.2000, -47.503
 699.4000, -47.456
 699.6000, -47.496
 699.8000, -47.500
 700.0000, -47.495
 700.2000, -47.482
 700.4000, -47.469
 700.6000, -47.524
 700.8000, -47.525
 701.0000, -47.588
 701.2000, -47.534
 701.4000, -47.552
 701.6000, -47.569
 701.8000, -47.542
 702.0000, -47.608
 702.2000, -47.507
 702.4000, -47.633
 702.6000, -47.614
 702.8000, -47.530
 703.0000, -47.504
 703.2000, -47.644
 703.4000, -47.538
 703.6000, -47.614
 703.8000, -47.704
 704.0000, -47.592
 704.2000, -47.483
 704.4000, -47.599
 704.6000, -47.682
 704.8000, -47.747
 705.0000, -47.605
 705.2000, -47.686
 705.4000, -47.667
 705.6000, -47.583
 705.8000, -47.798
 706.0000, -47.736
 706.2000, -47.802
 706.4000, -47.731
 706.6000, -47.824
 706.8000, -47.649
 707.0000, -47.806
 707.2000, -47.759
 707.4000, -47.785
 707.6000, -47.814
 707.8000, -47.667
 708.0000, -47.793
 708.2000, -47.698
 708.4000, -47.905
 708.6000, -47.805
 708.8000, -47.796
 709.0000, -47.693
 709.2000, -47.848
 709.4000, -47.835
 709.6000, -47.758
 709.8000, -47.919
 710.0000, -47.860
 710.2000, -48.031
 710.4000, -48.078
 710.6000, -47.859
 710.8000, -47.908
 711.0000, -47.986
 711.2000, -48.010
 711.4000, -48.078
 711.6000, -48.076
 711.8000, -48.028
 712.0000, -47.993
 712.2000, -47.999
 712.4000, -48.063
 712.6000, -48.041
 712.8000, -47.970
 713.0000, -48.022
 713.2000, -48.064
 713.4000, -48.025
 713.6000, -48.008
 713.8000, -48.118
 714.0000, -48.088
 714.2000, -48.106
 714.4000, -48.132
 714.6000, -48.155
 714.8000, -48.148
 715.0000, -48.136
 715.2000, -48.181
 715.4000, -48.157
 715.6000, -48.258
 715.8000, -48.312
 716.0000, -48.251
 716.2000, -48.250
 716.4000, -48.138
 716.6000, -48.263
 716.8000, -48.301
 717.0000, -48.105
 717.2000, -48.243
 717.4000, -48.248
 717.6000, -48.258
 717.8000, -48.348
 718.0000, -48.327
 718.2000, -48.339
 718.4000, -48.262
 718.6000, -48.323
 718.8000, -48.432
 719.0000, -48.430
 719.2000, -48.517
 719.4000, -48.450
 719.6000, -48.432
 719.8000, -48.534
 720.0000, -48.518
 720.2000, -48.514
 720.4000, -48.399
 720.6000, -48.377
 720.8000, -48.534
 721.0000, -48.493
 721.2000, -48.605
 721.4000, -48.560
 721.6000, -48.560
 721.8000, -48.489
 722.0000, -48.594
 722.2000, -48.523
 722.4000, -48.629
 722.6000, -48.511
 722.8000, -48.565
 723.0000, -48.633
 723.2000, -48.651
 723.4000, -48.637
 723.6000, -48.576
 723.8000, -48.660
 724.0000, -48.552
 724.2000, -48.694
 724.4000, -48.667
 724.6000, -48.865
 724.8000, -48.743
 725.0000, -48.755
 725.2000, -48.959
 725.4000, -48.891
 725.6000, -48.825
 725.8000, -48.797
 726.0000, -48.852
 726.2000, -48.838
 726.4000, -48.810
 726.6000, -48.864
 726.8000, -48.976
 727.0000, -48.944
 727.2000, -48.881
 727.4000, -48.916
 727.6000, -48.885
 727.8000, -48.945
 728.0000, -48.912
 728.2000, -49.005
 728.4000, -49.064
 728.6000, -49.011
 728.8000, -49.064
 729.0000, -48.966
 729.2000, -49.030
 729.4000, -49.035
 729.6000, -49.071
 729.8000, -49.023
 730.0000, -48.965
 730.2000, -49.047
 730.4000, -49.098
 730.6000, -49.060
 730.8000, -49.154
 731.0000, -49.102
 731.2000, -49.126
 731.4000, -49.194
 731.6000, -49.022
 731.8000, -49.167
 732.0000, -49.099
 732.2000, -49.112
 732.4000, -49.157
 732.6000, -49.213
 732.8000, -49.290
 733.0000, -49.020
 733.2000, -49.167
 733.4000, -49.287
 733.6000, -49.192
 733.8000, -49.274
 734.0000, -49.313
 734.2000, -49.250
 734.4000, -49.288
 734.6000, -49.258
 734.8000, -49.332
 735.0000, -49.348
 735.2000, -49.352
 735.4000, -49.372
 735.6000, -49.343
 735.8000, -49.405
 736.0000, -49.365
 736.2000, -49.360
 736.4000, -49.348
 736.6000, -49.449
 736.8000, -49.425
 737.0000, -49.478
 737.2000, -49.398
 737.4000, -49.451
 737.6000, -49.454
 737.8000, -49.482
 738.0000, -49.510
 738.2000, -49.449
 738.4000, -49.603
 738.6000, -49.438
 738.8000, -49.570
 739.0000, -49.528
 739.2000, -49.525
 739.4000, -49.481
 739.6000, -49.699
 739.8000, -49.544
 740.0000, -49.598
 740.2000, -49.584
 740.4000, -49.497
 740.6000, -49.593
 740.8000, -49.645
 741.0000, -49.618
 741.2000, -49.691
 741.4000, -49.755
 741.6000, -49.581
 741.8000, -49.691
 742.0000, -49.660
 742.2000, -49.711
 742.4000, -49.664
 742.6000, -49.660
 742.8000, -49.877
 743.0000, -49.761
 743.2000, -49.900
 743.4000, -49.910
 743.6000, -49.717
