74CSV  	
// AQ6374 OPTICAL SPECTRUM ANALYZER //                  
35
"CTRWL",1125.000000
"SPAN",1150.000000
"START WL", 550.000000
"STOP WL",1700.000000
"WLFREQ", 0
"REFL",-56.6
"LSCL", 5.0
"RESLN",1.000
"AVG",   1
"SMPLAUTO",      1
"SMPL",       5751
"SMPLINTVL",0.2000
"HIGH1"
"MEAS"
"LSUNT",0
"NMSKH","OFF"
"RESCOR",0
"SMOOTH",0
"MEASWL",1
"SWPSPD",0
"MODELNAME","AQ6374"
"CHGPT",        102
"RESCAL0_0",       9996
"RESCAL0_1",       -866
"RESCAL0_2",    1341521
"RESCAL1_0",      10053
"RESCAL1_1",          0
"RESCAL1_2",          0
"CORESIZE", 0






"[TRACE DATA]"
 550.0000, -68.137
 550.2000, -67.983
 550.4000, -68.849
 550.6000, -69.674
 550.8000, -74.442
 551.0000, -69.928
 551.2000, -72.391
 551.4000,-210.000
 551.6000, -73.492
 551.8000,-210.000
 552.0000,-210.000
 552.2000, -64.723
 552.4000,-210.000
 552.6000, -70.319
 552.8000,-210.000
 553.0000, -72.985
 553.2000, -69.815
 553.4000, -68.684
 553.6000, -68.744
 553.8000,-210.000
 554.0000,-210.000
 554.2000,-210.000
 554.4000, -89.481
 554.6000, -74.667
 554.8000, -76.571
 555.0000, -69.185
 555.2000, -72.799
 555.4000, -68.070
 555.6000, -71.827
 555.8000, -68.796
 556.0000, -69.706
 556.2000, -79.686
 556.4000, -82.556
 556.6000, -68.533
 556.8000, -73.052
 557.0000,-210.000
 557.2000, -67.210
 557.4000, -69.433
 557.6000,-210.000
 557.8000,-210.000
 558.0000, -69.748
 558.2000, -69.791
 558.4000, -69.354
 558.6000, -69.565
 558.8000, -75.909
 559.0000,-210.000
 559.2000, -71.420
 559.4000, -67.494
 559.6000,-210.000
 559.8000, -69.116
 560.0000, -70.906
 560.2000, -69.249
 560.4000, -67.709
 560.6000, -68.705
 560.8000, -72.229
 561.0000, -73.988
 561.2000,-210.000
 561.4000, -67.883
 561.6000, -69.697
 561.8000, -70.993
 562.0000, -81.044
 562.2000, -72.556
 562.4000, -71.686
 562.6000, -68.709
 562.8000, -71.525
 563.0000, -72.947
 563.2000, -68.942
 563.4000,-210.000
 563.6000, -68.730
 563.8000,-210.000
 564.0000, -67.318
 564.2000, -67.028
 564.4000, -69.712
 564.6000, -72.188
 564.8000, -71.243
 565.0000,-210.000
 565.2000, -68.391
 565.4000, -67.099
 565.6000, -72.821
 565.8000, -69.526
 566.0000, -68.838
 566.2000, -68.246
 566.4000, -69.286
 566.6000, -66.051
 566.8000, -70.107
 567.0000, -70.403
 567.2000, -75.211
 567.4000, -69.748
 567.6000, -67.309
 567.8000,-210.000
 568.0000, -68.693
 568.2000,-210.000
 568.4000, -67.293
 568.6000, -73.893
 568.8000, -71.601
 569.0000, -74.102
 569.2000, -75.954
 569.4000, -69.132
 569.6000, -71.258
 569.8000,-210.000
 570.0000, -68.867
 570.2000, -67.875
 570.4000, -81.846
 570.6000, -68.124
 570.8000, -67.964
 571.0000, -69.052
 571.2000, -74.499
 571.4000, -72.963
 571.6000, -72.124
 571.8000, -69.054
 572.0000, -66.385
 572.2000, -69.382
 572.4000, -69.567
 572.6000, -67.765
 572.8000, -69.641
 573.0000, -70.326
 573.2000, -66.719
 573.4000, -65.630
 573.6000, -67.503
 573.8000, -67.342
 574.0000, -67.412
 574.2000, -69.497
 574.4000, -67.499
 574.6000, -66.478
 574.8000, -67.506
 575.0000, -67.760
 575.2000, -67.737
 575.4000, -70.389
 575.6000, -67.375
 575.8000, -66.790
 576.0000, -66.835
 576.2000, -66.683
 576.4000, -67.205
 576.6000, -66.937
 576.8000, -68.101
 577.0000, -67.865
 577.2000, -67.314
 577.4000, -66.918
 577.6000, -67.190
 577.8000, -67.048
 578.0000, -65.459
 578.2000, -66.189
 578.4000, -69.064
 578.6000, -68.446
 578.8000, -67.118
 579.0000, -65.984
 579.2000, -65.510
 579.4000, -65.467
 579.6000, -66.370
 579.8000, -65.964
 580.0000, -66.279
 580.2000, -65.531
 580.4000, -65.886
 580.6000, -65.794
 580.8000, -65.190
 581.0000, -65.841
 581.2000, -66.088
 581.4000, -65.180
 581.6000, -64.410
 581.8000, -65.266
 582.0000, -64.718
 582.2000, -64.625
 582.4000, -65.363
 582.6000, -65.486
 582.8000, -65.572
 583.0000, -65.927
 583.2000, -64.501
 583.4000, -65.701
 583.6000, -65.244
 583.8000, -65.502
 584.0000, -65.515
 584.2000, -64.249
 584.4000, -64.978
 584.6000, -65.384
 584.8000, -64.573
 585.0000, -64.808
 585.2000, -64.356
 585.4000, -65.170
 585.6000, -64.598
 585.8000, -64.033
 586.0000, -64.736
 586.2000, -64.928
 586.4000, -64.607
 586.6000, -64.546
 586.8000, -64.758
 587.0000, -65.109
 587.2000, -63.800
 587.4000, -63.808
 587.6000, -64.745
 587.8000, -64.356
 588.0000, -63.488
 588.2000, -63.704
 588.4000, -64.153
 588.6000, -64.106
 588.8000, -63.551
 589.0000, -63.180
 589.2000, -63.181
 589.4000, -62.671
 589.6000, -63.404
 589.8000, -63.656
 590.0000, -63.552
 590.2000, -63.197
 590.4000, -62.926
 590.6000, -62.843
 590.8000, -62.895
 591.0000, -62.983
 591.2000, -62.700
 591.4000, -63.141
 591.6000, -63.547
 591.8000, -62.598
 592.0000, -62.821
 592.2000, -62.545
 592.4000, -62.588
 592.6000, -62.326
 592.8000, -62.039
 593.0000, -62.117
 593.2000, -62.141
 593.4000, -62.288
 593.6000, -62.377
 593.8000, -62.410
 594.0000, -62.036
 594.2000, -62.255
 594.4000, -62.036
 594.6000, -62.516
 594.8000, -62.301
 595.0000, -62.088
 595.2000, -61.547
 595.4000, -61.567
 595.6000, -61.611
 595.8000, -61.687
 596.0000, -61.425
 596.2000, -61.378
 596.4000, -61.607
 596.6000, -61.486
 596.8000, -61.575
 597.0000, -61.031
 597.2000, -61.349
 597.4000, -61.266
 597.6000, -61.069
 597.8000, -61.684
 598.0000, -61.010
 598.2000, -60.536
 598.4000, -60.830
 598.6000, -60.935
 598.8000, -61.075
 599.0000, -60.975
 599.2000, -60.762
 599.4000, -60.803
 599.6000, -60.829
 599.8000, -60.678
 600.0000, -60.949
 600.2000, -60.706
 600.4000, -60.575
 600.6000, -60.735
 600.8000, -60.332
 601.0000, -60.313
 601.2000, -60.121
 601.4000, -60.146
 601.6000, -60.499
 601.8000, -59.885
 602.0000, -60.279
 602.2000, -60.081
 602.4000, -60.132
 602.6000, -59.809
 602.8000, -60.099
 603.0000, -60.158
 603.2000, -59.914
 603.4000, -59.938
 603.6000, -59.780
 603.8000, -59.574
 604.0000, -59.647
 604.2000, -59.375
 604.4000, -59.502
 604.6000, -59.607
 604.8000, -59.351
 605.0000, -59.292
 605.2000, -59.337
 605.4000, -59.566
 605.6000, -59.102
 605.8000, -59.536
 606.0000, -59.065
 606.2000, -59.113
 606.4000, -58.748
 606.6000, -59.045
 606.8000, -58.579
 607.0000, -58.780
 607.2000, -58.695
 607.4000, -58.730
 607.6000, -58.531
 607.8000, -58.397
 608.0000, -58.618
 608.2000, -58.503
 608.4000, -58.545
 608.6000, -58.343
 608.8000, -58.412
 609.0000, -58.351
 609.2000, -58.309
 609.4000, -58.195
 609.6000, -58.129
 609.8000, -58.138
 610.0000, -57.947
 610.2000, -58.127
 610.4000, -58.051
 610.6000, -57.773
 610.8000, -57.862
 611.0000, -57.668
 611.2000, -57.718
 611.4000, -57.758
 611.6000, -57.778
 611.8000, -57.314
 612.0000, -57.803
 612.2000, -57.342
 612.4000, -57.405
 612.6000, -57.242
 612.8000, -57.280
 613.0000, -57.116
 613.2000, -57.110
 613.4000, -57.047
 613.6000, -57.037
 613.8000, -56.925
 614.0000, -57.136
 614.2000, -56.829
 614.4000, -56.873
 614.6000, -56.939
 614.8000, -56.841
 615.0000, -56.826
 615.2000, -56.697
 615.4000, -56.819
 615.6000, -56.520
 615.8000, -56.705
 616.0000, -56.366
 616.2000, -56.538
 616.4000, -56.421
 616.6000, -56.423
 616.8000, -56.226
 617.0000, -56.109
 617.2000, -55.957
 617.4000, -56.013
 617.6000, -56.049
 617.8000, -56.018
 618.0000, -55.870
 618.2000, -55.823
 618.4000, -55.842
 618.6000, -55.682
 618.8000, -55.658
 619.0000, -55.631
 619.2000, -55.640
 619.4000, -55.669
 619.6000, -55.629
 619.8000, -55.460
 620.0000, -55.346
 620.2000, -55.282
 620.4000, -55.308
 620.6000, -55.243
 620.8000, -55.146
 621.0000, -55.090
 621.2000, -55.068
 621.4000, -55.174
 621.6000, -55.085
 621.8000, -54.953
 622.0000, -55.066
 622.2000, -54.715
 622.4000, -54.854
 622.6000, -54.662
 622.8000, -54.769
 623.0000, -54.643
 623.2000, -54.696
 623.4000, -54.645
 623.6000, -54.674
 623.8000, -54.510
 624.0000, -54.510
 624.2000, -54.389
 624.4000, -54.427
 624.6000, -54.316
 624.8000, -54.226
 625.0000, -54.143
 625.2000, -54.052
 625.4000, -54.219
 625.6000, -53.942
 625.8000, -53.977
 626.0000, -53.924
 626.2000, -53.928
 626.4000, -53.764
 626.6000, -53.840
 626.8000, -53.830
 627.0000, -53.838
 627.2000, -53.764
 627.4000, -53.618
 627.6000, -53.752
 627.8000, -53.528
 628.0000, -53.557
 628.2000, -53.480
 628.4000, -53.395
 628.6000, -53.214
 628.8000, -53.177
 629.0000, -53.241
 629.2000, -53.224
 629.4000, -53.154
 629.6000, -53.148
 629.8000, -53.000
 630.0000, -53.072
 630.2000, -53.026
 630.4000, -52.844
 630.6000, -52.912
 630.8000, -52.819
 631.0000, -52.774
 631.2000, -52.743
 631.4000, -52.763
 631.6000, -52.593
 631.8000, -52.599
 632.0000, -52.596
 632.2000, -52.660
 632.4000, -52.533
 632.6000, -52.528
 632.8000, -52.546
 633.0000, -52.448
 633.2000, -52.373
 633.4000, -52.301
 633.6000, -52.289
 633.8000, -52.236
 634.0000, -52.333
 634.2000, -52.206
 634.4000, -52.282
 634.6000, -52.006
 634.8000, -51.979
 635.0000, -52.005
 635.2000, -51.876
 635.4000, -51.924
 635.6000, -51.894
 635.8000, -51.908
 636.0000, -51.770
 636.2000, -51.719
 636.4000, -51.773
 636.6000, -51.745
 636.8000, -51.712
 637.0000, -51.691
 637.2000, -51.710
 637.4000, -51.544
 637.6000, -51.550
 637.8000, -51.478
 638.0000, -51.500
 638.2000, -51.461
 638.4000, -51.530
 638.6000, -51.454
 638.8000, -51.385
 639.0000, -51.237
 639.2000, -51.143
 639.4000, -51.188
 639.6000, -51.165
 639.8000, -51.194
 640.0000, -51.182
 640.2000, -51.180
 640.4000, -51.100
 640.6000, -51.038
 640.8000, -51.052
 641.0000, -51.052
 641.2000, -50.976
 641.4000, -50.893
 641.6000, -50.836
 641.8000, -50.841
 642.0000, -50.851
 642.2000, -50.915
 642.4000, -50.918
 642.6000, -50.752
 642.8000, -50.815
 643.0000, -50.801
 643.2000, -50.617
 643.4000, -50.730
 643.6000, -50.490
 643.8000, -50.592
 644.0000, -50.533
 644.2000, -50.485
 644.4000, -50.632
 644.6000, -50.440
 644.8000, -50.416
 645.0000, -50.403
 645.2000, -50.444
 645.4000, -50.379
 645.6000, -50.370
 645.8000, -50.263
 646.0000, -50.330
 646.2000, -50.341
 646.4000, -50.334
 646.6000, -50.308
 646.8000, -50.198
 647.0000, -50.220
 647.2000, -50.372
 647.4000, -50.228
 647.6000, -50.345
 647.8000, -50.136
 648.0000, -50.114
 648.2000, -50.077
 648.4000, -49.986
 648.6000, -49.865
 648.8000, -49.940
 649.0000, -49.934
 649.2000, -49.885
 649.4000, -49.911
 649.6000, -49.860
 649.8000, -49.878
 650.0000, -49.807
 650.2000, -49.754
 650.4000, -49.824
 650.6000, -49.809
 650.8000, -49.869
 651.0000, -49.721
 651.2000, -49.738
 651.4000, -49.748
 651.6000, -49.742
 651.8000, -49.853
 652.0000, -49.651
 652.2000, -49.598
 652.4000, -49.689
 652.6000, -49.652
 652.8000, -49.620
 653.0000, -49.553
 653.2000, -49.496
 653.4000, -49.548
 653.6000, -49.574
 653.8000, -49.539
 654.0000, -49.489
 654.2000, -49.459
 654.4000, -49.563
 654.6000, -49.427
 654.8000, -49.296
 655.0000, -49.405
 655.2000, -49.309
 655.4000, -49.218
 655.6000, -49.220
 655.8000, -49.251
 656.0000, -49.369
 656.2000, -49.254
 656.4000, -49.287
 656.6000, -49.230
 656.8000, -49.260
 657.0000, -49.339
 657.2000, -49.134
 657.4000, -49.238
 657.6000, -49.192
 657.8000, -49.194
 658.0000, -49.192
 658.2000, -49.143
 658.4000, -49.032
 658.6000, -49.140
 658.8000, -48.990
 659.0000, -49.003
 659.2000, -49.023
 659.4000, -49.044
 659.6000, -49.024
 659.8000, -49.102
 660.0000, -48.988
 660.2000, -48.924
 660.4000, -49.079
 660.6000, -49.045
 660.8000, -48.927
 661.0000, -48.914
 661.2000, -48.958
 661.4000, -48.871
 661.6000, -48.949
 661.8000, -48.823
 662.0000, -48.839
 662.2000, -48.924
 662.4000, -48.867
 662.6000, -48.871
 662.8000, -48.869
 663.0000, -48.759
 663.2000, -48.699
 663.4000, -48.775
 663.6000, -48.614
 663.8000, -48.742
 664.0000, -48.719
 664.2000, -48.741
 664.4000, -48.701
 664.6000, -48.592
 664.8000, -48.727
 665.0000, -48.676
 665.2000, -48.660
 665.4000, -48.706
 665.6000, -48.730
 665.8000, -48.627
 666.0000, -48.648
 666.2000, -48.682
 666.4000, -48.711
 666.6000, -48.620
 666.8000, -48.547
 667.0000, -48.568
 667.2000, -48.544
 667.4000, -48.569
 667.6000, -48.554
 667.8000, -48.709
 668.0000, -48.507
 668.2000, -48.689
 668.4000, -48.646
 668.6000, -48.547
 668.8000, -48.514
 669.0000, -48.559
 669.2000, -48.601
 669.4000, -48.477
 669.6000, -48.470
 669.8000, -48.420
 670.0000, -48.480
 670.2000, -48.420
 670.4000, -48.473
 670.6000, -48.378
 670.8000, -48.440
 671.0000, -48.433
 671.2000, -48.395
 671.4000, -48.444
 671.6000, -48.297
 671.8000, -48.212
 672.0000, -48.288
 672.2000, -48.422
 672.4000, -48.343
 672.6000, -48.409
 672.8000, -48.370
 673.0000, -48.476
 673.2000, -48.371
 673.4000, -48.425
 673.6000, -48.227
 673.8000, -48.231
 674.0000, -48.403
 674.2000, -48.273
 674.4000, -48.306
 674.6000, -48.229
 674.8000, -48.333
 675.0000, -48.229
 675.2000, -48.286
 675.4000, -48.221
 675.6000, -48.276
 675.8000, -48.181
 676.0000, -48.291
 676.2000, -48.201
 676.4000, -48.340
 676.6000, -48.133
 676.8000, -48.222
 677.0000, -48.312
 677.2000, -48.225
 677.4000, -48.176
 677.6000, -48.145
 677.8000, -48.084
 678.0000, -48.021
 678.2000, -48.227
 678.4000, -48.222
 678.6000, -48.202
 678.8000, -48.076
 679.0000, -48.148
 679.2000, -48.172
 679.4000, -48.181
 679.6000, -48.226
 679.8000, -48.186
 680.0000, -48.208
 680.2000, -48.367
 680.4000, -48.219
 680.6000, -48.240
 680.8000, -48.177
 681.0000, -48.214
 681.2000, -48.201
 681.4000, -48.125
 681.6000, -48.193
 681.8000, -48.084
 682.0000, -48.201
 682.2000, -48.127
 682.4000, -48.170
 682.6000, -48.118
 682.8000, -48.066
 683.0000, -48.229
 683.2000, -48.026
 683.4000, -48.164
 683.6000, -48.154
 683.8000, -48.059
 684.0000, -48.152
 684.2000, -48.035
 684.4000, -48.087
 684.6000, -48.039
 684.8000, -48.084
 685.0000, -48.083
 685.2000, -48.116
 685.4000, -48.083
 685.6000, -48.007
 685.8000, -48.114
 686.0000, -48.122
 686.2000, -48.091
 686.4000, -48.201
 686.6000, -48.079
 686.8000, -48.072
 687.0000, -48.204
 687.2000, -48.083
 687.4000, -48.147
 687.6000, -48.091
 687.8000, -48.257
 688.0000, -48.077
 688.2000, -47.979
 688.4000, -48.166
 688.6000, -48.177
 688.8000, -48.094
 689.0000, -47.983
 689.2000, -48.083
 689.4000, -47.997
 689.6000, -48.262
 689.8000, -48.014
 690.0000, -48.064
 690.2000, -48.095
 690.4000, -48.074
 690.6000, -48.111
 690.8000, -48.146
 691.0000, -48.054
 691.2000, -48.114
 691.4000, -48.198
 691.6000, -48.147
 691.8000, -48.111
 692.0000, -48.127
 692.2000, -48.109
 692.4000, -48.116
 692.6000, -48.290
 692.8000, -48.112
 693.0000, -47.972
 693.2000, -48.079
 693.4000, -48.103
 693.6000, -48.182
 693.8000, -48.115
 694.0000, -48.242
 694.2000, -48.153
 694.4000, -48.320
 694.6000, -48.141
 694.8000, -48.109
 695.0000, -48.158
 695.2000, -48.168
 695.4000, -48.099
 695.6000, -48.179
 695.8000, -48.276
 696.0000, -48.177
 696.2000, -48.227
 696.4000, -48.086
 696.6000, -48.304
 696.8000, -48.085
 697.0000, -48.127
 697.2000, -48.189
 697.4000, -48.195
 697.6000, -48.114
 697.8000, -48.213
 698.0000, -48.241
 698.2000, -48.120
 698.4000, -48.236
 698.6000, -48.150
 698.8000, -48.249
 699.0000, -48.293
 699.2000, -48.270
 699.4000, -48.154
 699.6000, -48.193
 699.8000, -48.270
 700.0000, -48.237
 700.2000, -48.237
 700.4000, -48.287
 700.6000, -48.242
 700.8000, -48.310
 701.0000, -48.315
 701.2000, -48.265
 701.4000, -48.302
 701.6000, -48.387
 701.8000, -48.282
 702.0000, -48.315
 702.2000, -48.210
 702.4000, -48.374
 702.6000, -48.294
 702.8000, -48.379
 703.0000, -48.269
 703.2000, -48.398
 703.4000, -48.399
 703.6000, -48.345
 703.8000, -48.481
 704.0000, -48.465
 704.2000, -48.418
 704.4000, -48.441
 704.6000, -48.428
 704.8000, -48.300
 705.0000, -48.425
 705.2000, -48.365
 705.4000, -48.480
 705.6000, -48.481
 705.8000, -48.471
 706.0000, -48.429
 706.2000, -48.492
 706.4000, -48.425
 706.6000, -48.496
 706.8000, -48.572
 707.0000, -48.514
 707.2000, -48.562
 707.4000, -48.433
 707.6000, -48.548
 707.8000, -48.472
 708.0000, -48.595
 708.2000, -48.663
 708.4000, -48.587
 708.6000, -48.604
 708.8000, -48.589
 709.0000, -48.725
 709.2000, -48.728
 709.4000, -48.616
 709.6000, -48.734
 709.8000, -48.652
 710.0000, -48.626
 710.2000, -48.761
 710.4000, -48.709
 710.6000, -48.727
 710.8000, -48.659
 711.0000, -48.698
 711.2000, -48.686
 711.4000, -48.675
 711.6000, -48.707
 711.8000, -48.619
 712.0000, -48.740
 712.2000, -48.759
 712.4000, -48.763
 712.6000, -48.714
 712.8000, -48.811
 713.0000, -48.704
 713.2000, -48.900
 713.4000, -48.754
 713.6000, -48.802
 713.8000, -48.879
 714.0000, -48.934
 714.2000, -48.938
 714.4000, -48.876
 714.6000, -48.873
 714.8000, -48.833
 715.0000, -49.054
 715.2000, -48.870
 715.4000, -48.871
 715.6000, -48.869
 715.8000, -48.983
 716.0000, -48.946
 716.2000, -49.046
 716.4000, -49.008
 716.6000, -48.977
 716.8000, -49.106
 717.0000, -49.055
 717.2000, -49.133
 717.4000, -49.049
 717.6000, -49.065
 717.8000, -49.005
 718.0000, -49.090
 718.2000, -49.219
 718.4000, -49.083
 718.6000, -49.172
 718.8000, -49.044
 719.0000, -49.062
 719.2000, -49.175
 719.4000, -49.143
 719.6000, -49.130
 719.8000, -49.294
 720.0000, -49.231
 720.2000, -49.207
 720.4000, -49.210
 720.6000, -49.104
 720.8000, -49.222
 721.0000, -49.218
 721.2000, -49.327
 721.4000, -49.300
 721.6000, -49.294
 721.8000, -49.335
 722.0000, -49.324
 722.2000, -49.350
 722.4000, -49.397
 722.6000, -49.348
 722.8000, -49.460
 723.0000, -49.356
 723.2000, -49.330
 723.4000, -49.470
 723.6000, -49.300
 723.8000, -49.500
 724.0000, -49.384
 724.2000, -49.514
 724.4000, -49.413
 724.6000, -49.419
 724.8000, -49.451
 725.0000, -49.530
 725.2000, -49.516
 725.4000, -49.500
 725.6000, -49.553
 725.8000, -49.546
 726.0000, -49.586
 726.2000, -49.616
 726.4000, -49.690
 726.6000, -49.501
 726.8000, -49.513
 727.0000, -49.657
 727.2000, -49.602
 727.4000, -49.564
 727.6000, -49.485
 727.8000, -49.634
 728.0000, -49.607
 728.2000, -49.629
 728.4000, -49.702
 728.6000, -49.764
 728.8000, -49.736
 729.0000, -49.671
 729.2000, -49.616
 729.4000, -49.634
 729.6000, -49.768
 729.8000, -49.631
 730.0000, -49.751
 730.2000, -49.700
 730.4000, -49.796
 730.6000, -49.844
 730.8000, -49.811
 731.0000, -49.872
 731.2000, -49.791
 731.4000, -49.895
 731.6000, -49.833
 731.8000, -49.857
 732.0000, -49.901
 732.2000, -49.919
 732.4000, -49.964
 732.6000, -49.907
 732.8000, -49.880
 733.0000, -49.874
 733.2000, -50.007
 733.4000, -49.855
 733.6000, -49.924
 733.8000, -49.872
 734.0000, -49.996
 734.2000, -49.948
 734.4000, -49.919
 734.6000, -50.060
 734.8000, -49.984
 735.0000, -50.190
 735.2000, -50.078
 735.4000, -50.067
 735.6000, -49.883
 735.8000, -50.003
 736.0000, -50.195
 736.2000, -50.097
 736.4000, -50.150
 736.6000, -49.988
 736.8000, -50.113
 737.0000, -50.021
 737.2000, -50.061
 737.4000, -50.135
 737.6000, -50.096
 737.8000, -50.250
 738.0000, -50.099
 738.2000, -50.204
 738.4000, -50.220
 738.6000, -50.078
 738.8000, -50.422
 739.0000, -50.132
 739.2000, -50.351
 739.4000, -50.182
 739.6000, -50.379
 739.8000, -50.404
 740.0000, -50.227
 740.2000, -50.422
 740.4000, -50.344
 740.6000, -50.329
 740.8000, -50.338
 741.0000, -50.278
 741.2000, -50.434
 741.4000, -50.418
 741.6000, -50.376
 741.8000, -50.460
 742.0000, -50.272
 742.2000, -50.420
 742.4000, -50.384
 742.6000, -50.269
 742.8000, -50.534
 743.0000, -50.324
 743.2000, -50.414
 743.4000, -50.537
 743.6000, -50.364
