74CSV  	
// AQ6374 OPTICAL SPECTRUM ANALYZER //                  
35
"CTRWL",1125.000000
"SPAN",1150.000000
"START WL", 550.000000
"STOP WL",1700.000000
"WLFREQ", 0
"REFL",-56.6
"LSCL", 5.0
"RESLN",1.000
"AVG",   1
"SMPLAUTO",      1
"SMPL",       5751
"SMPLINTVL",0.2000
"HIGH1"
"MEAS"
"LSUNT",0
"NMSKH","OFF"
"RESCOR",0
"SMOOTH",0
"MEASWL",1
"SWPSPD",0
"MODELNAME","AQ6374"
"CHGPT",        102
"RESCAL0_0",       9996
"RESCAL0_1",       -866
"RESCAL0_2",    1341521
"RESCAL1_0",      10053
"RESCAL1_1",          0
"RESCAL1_2",          0
"CORESIZE", 0






"[TRACE DATA]"
 550.0000, -70.512
 550.2000,-210.000
 550.4000, -76.106
 550.6000, -80.666
 550.8000,-210.000
 551.0000, -70.887
 551.2000,-210.000
 551.4000,-210.000
 551.6000, -83.379
 551.8000, -74.665
 552.0000, -67.007
 552.2000, -67.857
 552.4000, -77.449
 552.6000, -81.230
 552.8000,-210.000
 553.0000, -98.321
 553.2000,-210.000
 553.4000,-210.000
 553.6000,-210.000
 553.8000, -71.153
 554.0000,-210.000
 554.2000,-210.000
 554.4000,-210.000
 554.6000, -72.950
 554.8000, -72.465
 555.0000, -71.035
 555.2000,-210.000
 555.4000,-210.000
 555.6000,-210.000
 555.8000,-210.000
 556.0000,-210.000
 556.2000,-210.000
 556.4000, -78.760
 556.6000,-210.000
 556.8000,-210.000
 557.0000, -73.410
 557.2000,-210.000
 557.4000,-210.000
 557.6000,-210.000
 557.8000, -77.829
 558.0000,-210.000
 558.2000,-210.000
 558.4000, -81.965
 558.6000,-210.000
 558.8000, -82.322
 559.0000,-210.000
 559.2000,-210.000
 559.4000, -72.118
 559.6000,-210.000
 559.8000, -75.264
 560.0000, -69.444
 560.2000,-210.000
 560.4000,-210.000
 560.6000, -76.860
 560.8000,-210.000
 561.0000, -74.196
 561.2000,-210.000
 561.4000, -77.489
 561.6000, -70.618
 561.8000,-210.000
 562.0000,-210.000
 562.2000, -81.289
 562.4000, -80.816
 562.6000,-210.000
 562.8000,-210.000
 563.0000, -70.736
 563.2000, -72.151
 563.4000, -67.342
 563.6000,-210.000
 563.8000, -74.670
 564.0000, -76.732
 564.2000,-210.000
 564.4000,-210.000
 564.6000,-210.000
 564.8000,-210.000
 565.0000,-210.000
 565.2000,-210.000
 565.4000,-210.000
 565.6000,-210.000
 565.8000,-210.000
 566.0000, -69.850
 566.2000, -73.863
 566.4000,-210.000
 566.6000,-210.000
 566.8000, -66.215
 567.0000,-210.000
 567.2000,-210.000
 567.4000, -82.062
 567.6000,-210.000
 567.8000, -68.202
 568.0000, -73.369
 568.2000,-210.000
 568.4000,-210.000
 568.6000, -75.494
 568.8000,-210.000
 569.0000,-210.000
 569.2000,-210.000
 569.4000, -72.894
 569.6000,-210.000
 569.8000, -77.788
 570.0000,-210.000
 570.2000,-210.000
 570.4000,-210.000
 570.6000, -78.665
 570.8000, -71.501
 571.0000, -74.071
 571.2000,-210.000
 571.4000,-210.000
 571.6000, -70.260
 571.8000,-210.000
 572.0000,-210.000
 572.2000, -74.141
 572.4000,-210.000
 572.6000,-210.000
 572.8000, -70.013
 573.0000, -78.448
 573.2000, -73.206
 573.4000, -75.569
 573.6000,-210.000
 573.8000, -83.371
 574.0000,-210.000
 574.2000,-210.000
 574.4000, -70.875
 574.6000,-210.000
 574.8000, -78.956
 575.0000, -69.045
 575.2000, -75.469
 575.4000, -76.423
 575.6000,-210.000
 575.8000, -80.029
 576.0000, -83.826
 576.2000,-210.000
 576.4000, -77.538
 576.6000, -78.441
 576.8000,-210.000
 577.0000,-210.000
 577.2000, -88.084
 577.4000, -72.452
 577.6000, -80.085
 577.8000,-210.000
 578.0000,-210.000
 578.2000,-210.000
 578.4000,-210.000
 578.6000, -74.730
 578.8000, -83.106
 579.0000, -70.972
 579.2000, -76.823
 579.4000,-210.000
 579.6000, -74.819
 579.8000, -73.961
 580.0000,-210.000
 580.2000,-210.000
 580.4000,-210.000
 580.6000, -90.984
 580.8000,-210.000
 581.0000, -78.897
 581.2000,-210.000
 581.4000, -72.069
 581.6000,-210.000
 581.8000, -79.161
 582.0000,-210.000
 582.2000,-210.000
 582.4000,-210.000
 582.6000,-210.000
 582.8000, -73.791
 583.0000,-210.000
 583.2000,-210.000
 583.4000,-210.000
 583.6000,-210.000
 583.8000, -72.507
 584.0000, -76.151
 584.2000, -78.910
 584.4000,-210.000
 584.6000, -74.282
 584.8000,-210.000
 585.0000,-210.000
 585.2000,-210.000
 585.4000,-210.000
 585.6000,-210.000
 585.8000, -74.368
 586.0000, -69.486
 586.2000, -72.148
 586.4000, -73.878
 586.6000, -78.457
 586.8000, -80.740
 587.0000,-210.000
 587.2000,-210.000
 587.4000, -73.159
 587.6000,-210.000
 587.8000,-210.000
 588.0000, -79.054
 588.2000, -88.083
 588.4000,-210.000
 588.6000,-210.000
 588.8000,-210.000
 589.0000,-210.000
 589.2000, -72.532
 589.4000,-210.000
 589.6000,-210.000
 589.8000, -79.852
 590.0000,-210.000
 590.2000, -73.121
 590.4000,-210.000
 590.6000, -77.965
 590.8000,-210.000
 591.0000,-210.000
 591.2000,-210.000
 591.4000, -79.328
 591.6000,-210.000
 591.8000,-210.000
 592.0000,-210.000
 592.2000, -80.821
 592.4000,-210.000
 592.6000,-210.000
 592.8000, -82.249
 593.0000,-210.000
 593.2000, -79.024
 593.4000,-210.000
 593.6000,-210.000
 593.8000, -83.108
 594.0000, -95.111
 594.2000,-210.000
 594.4000, -74.398
 594.6000, -81.940
 594.8000,-210.000
 595.0000,-210.000
 595.2000,-210.000
 595.4000,-210.000
 595.6000, -73.656
 595.8000,-210.000
 596.0000,-210.000
 596.2000, -73.261
 596.4000,-210.000
 596.6000, -77.896
 596.8000, -75.413
 597.0000,-210.000
 597.2000,-210.000
 597.4000, -77.249
 597.6000, -78.531
 597.8000, -80.130
 598.0000, -72.618
 598.2000, -72.056
 598.4000,-210.000
 598.6000,-210.000
 598.8000, -77.335
 599.0000, -76.804
 599.2000, -77.485
 599.4000,-210.000
 599.6000,-210.000
 599.8000,-210.000
 600.0000, -72.543
 600.2000, -72.276
 600.4000, -72.788
 600.6000, -83.037
 600.8000, -77.099
 601.0000, -80.711
 601.2000, -76.391
 601.4000,-210.000
 601.6000,-210.000
 601.8000,-210.000
 602.0000,-210.000
 602.2000, -75.795
 602.4000, -81.657
 602.6000,-210.000
 602.8000, -80.207
 603.0000,-210.000
 603.2000, -71.474
 603.4000, -85.213
 603.6000,-210.000
 603.8000,-210.000
 604.0000,-210.000
 604.2000, -73.264
 604.4000,-210.000
 604.6000,-210.000
 604.8000, -71.980
 605.0000, -88.474
 605.2000, -73.330
 605.4000, -70.801
 605.6000,-210.000
 605.8000,-210.000
 606.0000, -74.511
 606.2000, -75.945
 606.4000, -73.842
 606.6000, -75.578
 606.8000, -83.733
 607.0000, -75.989
 607.2000,-210.000
 607.4000, -73.349
 607.6000, -81.717
 607.8000, -81.147
 608.0000, -70.403
 608.2000, -78.421
 608.4000, -76.475
 608.6000,-210.000
 608.8000, -85.518
 609.0000, -76.105
 609.2000,-210.000
 609.4000,-210.000
 609.6000, -82.733
 609.8000, -72.539
 610.0000, -76.900
 610.2000, -79.809
 610.4000, -73.712
 610.6000, -78.452
 610.8000,-210.000
 611.0000, -72.113
 611.2000, -75.849
 611.4000,-210.000
 611.6000, -76.901
 611.8000, -82.510
 612.0000, -75.510
 612.2000, -72.387
 612.4000, -75.680
 612.6000, -78.330
 612.8000, -76.445
 613.0000,-210.000
 613.2000, -81.741
 613.4000, -73.974
 613.6000,-210.000
 613.8000, -76.192
 614.0000, -74.558
 614.2000, -73.820
 614.4000, -80.284
 614.6000, -77.359
 614.8000, -75.418
 615.0000,-210.000
 615.2000,-210.000
 615.4000, -75.799
 615.6000, -75.516
 615.8000, -74.130
 616.0000, -73.439
 616.2000, -85.022
 616.4000,-210.000
 616.6000, -75.420
 616.8000, -74.272
 617.0000, -70.386
 617.2000, -73.550
 617.4000, -74.218
 617.6000, -75.612
 617.8000, -70.862
 618.0000, -71.784
 618.2000, -78.048
 618.4000, -73.531
 618.6000, -71.157
 618.8000, -78.709
 619.0000, -74.794
 619.2000, -73.676
 619.4000, -75.644
 619.6000, -77.824
 619.8000, -72.454
 620.0000, -71.738
 620.2000, -75.816
 620.4000, -72.522
 620.6000, -76.933
 620.8000, -74.791
 621.0000, -76.949
 621.2000, -73.624
 621.4000, -72.133
 621.6000, -74.728
 621.8000, -72.374
 622.0000, -71.403
 622.2000, -80.353
 622.4000, -79.408
 622.6000, -71.925
 622.8000, -71.776
 623.0000, -71.542
 623.2000, -71.742
 623.4000, -73.536
 623.6000, -71.622
 623.8000, -73.514
 624.0000, -75.647
 624.2000, -72.653
 624.4000, -74.100
 624.6000, -69.957
 624.8000, -74.512
 625.0000, -72.963
 625.2000, -71.698
 625.4000, -74.140
 625.6000, -72.708
 625.8000, -72.160
 626.0000, -73.268
 626.2000, -70.354
 626.4000, -73.478
 626.6000, -74.466
 626.8000, -72.332
 627.0000, -70.888
 627.2000, -70.675
 627.4000, -72.552
 627.6000, -72.802
 627.8000, -70.578
 628.0000, -71.991
 628.2000, -68.799
 628.4000, -72.932
 628.6000, -71.590
 628.8000, -73.540
 629.0000, -71.068
 629.2000, -69.946
 629.4000, -71.615
 629.6000, -70.161
 629.8000, -71.203
 630.0000, -69.290
 630.2000, -71.810
 630.4000, -70.918
 630.6000, -68.852
 630.8000, -71.668
 631.0000, -70.347
 631.2000, -69.964
 631.4000, -70.504
 631.6000, -70.682
 631.8000, -69.887
 632.0000, -70.007
 632.2000, -71.605
 632.4000, -70.278
 632.6000, -69.344
 632.8000, -70.126
 633.0000, -70.729
 633.2000, -70.196
 633.4000, -69.255
 633.6000, -69.801
 633.8000, -69.866
 634.0000, -68.390
 634.2000, -70.647
 634.4000, -69.704
 634.6000, -69.519
 634.8000, -69.300
 635.0000, -67.964
 635.2000, -69.318
 635.4000, -69.738
 635.6000, -69.348
 635.8000, -69.391
 636.0000, -70.001
 636.2000, -68.980
 636.4000, -69.240
 636.6000, -69.086
 636.8000, -69.756
 637.0000, -67.919
 637.2000, -68.102
 637.4000, -69.084
 637.6000, -68.352
 637.8000, -68.613
 638.0000, -67.998
 638.2000, -68.476
 638.4000, -68.825
 638.6000, -68.728
 638.8000, -68.608
 639.0000, -68.667
 639.2000, -67.933
 639.4000, -67.721
 639.6000, -68.162
 639.8000, -68.478
 640.0000, -69.450
 640.2000, -68.581
 640.4000, -67.244
 640.6000, -68.102
 640.8000, -68.210
 641.0000, -67.921
 641.2000, -67.477
 641.4000, -67.745
 641.6000, -68.267
 641.8000, -67.576
 642.0000, -68.390
 642.2000, -68.318
 642.4000, -66.947
 642.6000, -67.344
 642.8000, -67.788
 643.0000, -66.684
 643.2000, -66.797
 643.4000, -67.448
 643.6000, -67.295
 643.8000, -67.892
 644.0000, -67.383
 644.2000, -67.981
 644.4000, -66.922
 644.6000, -66.659
 644.8000, -66.809
 645.0000, -66.773
 645.2000, -67.317
 645.4000, -66.785
 645.6000, -67.824
 645.8000, -67.026
 646.0000, -67.112
 646.2000, -67.119
 646.4000, -67.149
 646.6000, -66.682
 646.8000, -67.711
 647.0000, -66.835
 647.2000, -67.195
 647.4000, -66.528
 647.6000, -67.762
 647.8000, -66.763
 648.0000, -66.733
 648.2000, -67.207
 648.4000, -66.348
 648.6000, -66.682
 648.8000, -67.097
 649.0000, -66.801
 649.2000, -66.787
 649.4000, -66.328
 649.6000, -66.433
 649.8000, -66.620
 650.0000, -65.851
 650.2000, -66.177
 650.4000, -67.151
 650.6000, -66.803
 650.8000, -66.747
 651.0000, -66.776
 651.2000, -66.373
 651.4000, -66.264
 651.6000, -66.700
 651.8000, -66.272
 652.0000, -66.330
 652.2000, -66.196
 652.4000, -66.215
 652.6000, -66.041
 652.8000, -66.800
 653.0000, -66.831
 653.2000, -65.732
 653.4000, -65.963
 653.6000, -66.373
 653.8000, -66.132
 654.0000, -66.219
 654.2000, -65.634
 654.4000, -65.617
 654.6000, -65.693
 654.8000, -65.737
 655.0000, -65.958
 655.2000, -65.736
 655.4000, -65.740
 655.6000, -65.976
 655.8000, -65.819
 656.0000, -65.831
 656.2000, -65.832
 656.4000, -65.982
 656.6000, -65.707
 656.8000, -65.608
 657.0000, -66.019
 657.2000, -65.625
 657.4000, -65.579
 657.6000, -65.343
 657.8000, -65.830
 658.0000, -65.842
 658.2000, -65.324
 658.4000, -65.346
 658.6000, -65.611
 658.8000, -65.597
 659.0000, -65.492
 659.2000, -65.071
 659.4000, -65.548
 659.6000, -65.468
 659.8000, -64.980
 660.0000, -65.476
 660.2000, -64.935
 660.4000, -65.300
 660.6000, -65.117
 660.8000, -64.943
 661.0000, -65.089
 661.2000, -65.370
 661.4000, -65.374
 661.6000, -64.993
 661.8000, -65.430
 662.0000, -65.502
 662.2000, -65.268
 662.4000, -65.050
 662.6000, -65.274
 662.8000, -65.149
 663.0000, -64.802
 663.2000, -64.966
 663.4000, -64.895
 663.6000, -65.006
 663.8000, -65.162
 664.0000, -65.275
 664.2000, -64.684
 664.4000, -64.765
 664.6000, -64.933
 664.8000, -64.708
 665.0000, -64.611
 665.2000, -64.641
 665.4000, -64.300
 665.6000, -64.984
 665.8000, -64.673
 666.0000, -64.806
 666.2000, -64.922
 666.4000, -64.592
 666.6000, -64.576
 666.8000, -64.443
 667.0000, -64.587
 667.2000, -64.524
 667.4000, -64.924
 667.6000, -64.960
 667.8000, -64.628
 668.0000, -64.385
 668.2000, -64.942
 668.4000, -64.753
 668.6000, -64.288
 668.8000, -64.525
 669.0000, -64.424
 669.2000, -64.167
 669.4000, -64.869
 669.6000, -64.437
 669.8000, -64.251
 670.0000, -64.572
 670.2000, -64.305
 670.4000, -64.457
 670.6000, -64.593
 670.8000, -64.391
 671.0000, -64.409
 671.2000, -64.257
 671.4000, -64.294
 671.6000, -63.956
 671.8000, -64.095
 672.0000, -64.343
 672.2000, -64.590
 672.4000, -64.372
 672.6000, -64.005
 672.8000, -64.327
 673.0000, -64.249
 673.2000, -64.296
 673.4000, -64.201
 673.6000, -64.157
 673.8000, -64.556
 674.0000, -64.208
 674.2000, -64.609
 674.4000, -64.152
 674.6000, -64.112
 674.8000, -64.355
 675.0000, -64.326
 675.2000, -64.170
 675.4000, -64.296
 675.6000, -64.259
 675.8000, -64.270
 676.0000, -64.285
 676.2000, -64.311
 676.4000, -63.911
 676.6000, -64.015
 676.8000, -64.082
 677.0000, -63.670
 677.2000, -64.115
 677.4000, -64.489
 677.6000, -64.359
 677.8000, -64.243
 678.0000, -64.080
 678.2000, -64.481
 678.4000, -64.051
 678.6000, -63.972
 678.8000, -63.908
 679.0000, -64.100
 679.2000, -64.364
 679.4000, -64.138
 679.6000, -64.037
 679.8000, -63.751
 680.0000, -63.822
 680.2000, -64.317
 680.4000, -64.095
 680.6000, -64.227
 680.8000, -63.756
 681.0000, -64.272
 681.2000, -64.417
 681.4000, -64.340
 681.6000, -64.319
 681.8000, -64.551
 682.0000, -64.203
 682.2000, -64.130
 682.4000, -64.012
 682.6000, -64.150
 682.8000, -64.058
 683.0000, -63.898
 683.2000, -63.955
 683.4000, -64.224
 683.6000, -64.183
 683.8000, -64.272
 684.0000, -64.202
 684.2000, -64.066
 684.4000, -64.718
 684.6000, -63.983
 684.8000, -64.191
 685.0000, -64.395
 685.2000, -64.237
 685.4000, -64.186
 685.6000, -64.393
 685.8000, -64.122
 686.0000, -64.320
 686.2000, -64.150
 686.4000, -64.365
 686.6000, -64.095
 686.8000, -64.020
 687.0000, -64.107
 687.2000, -64.194
 687.4000, -64.100
 687.6000, -64.073
 687.8000, -64.434
 688.0000, -64.264
 688.2000, -64.251
 688.4000, -64.437
 688.6000, -64.364
 688.8000, -64.153
 689.0000, -64.320
 689.2000, -64.688
 689.4000, -64.260
 689.6000, -64.692
 689.8000, -64.284
 690.0000, -64.450
 690.2000, -64.493
 690.4000, -64.319
 690.6000, -64.455
 690.8000, -64.347
 691.0000, -64.319
 691.2000, -64.615
 691.4000, -64.314
 691.6000, -64.377
 691.8000, -64.451
 692.0000, -64.419
 692.2000, -64.466
 692.4000, -64.416
 692.6000, -64.239
 692.8000, -64.517
 693.0000, -64.704
 693.2000, -64.431
 693.4000, -64.518
 693.6000, -64.086
 693.8000, -64.389
 694.0000, -64.677
 694.2000, -64.525
 694.4000, -64.448
 694.6000, -64.471
 694.8000, -64.831
 695.0000, -64.281
 695.2000, -64.485
 695.4000, -64.565
 695.6000, -64.288
 695.8000, -64.460
 696.0000, -64.534
 696.2000, -64.616
 696.4000, -64.544
 696.6000, -64.664
 696.8000, -64.612
 697.0000, -64.412
 697.2000, -64.618
 697.4000, -64.841
 697.6000, -64.660
 697.8000, -64.483
 698.0000, -64.841
 698.2000, -64.661
 698.4000, -64.898
 698.6000, -64.468
 698.8000, -64.497
 699.0000, -64.663
 699.2000, -64.583
 699.4000, -64.423
 699.6000, -64.639
 699.8000, -64.822
 700.0000, -64.810
 700.2000, -64.794
 700.4000, -64.833
 700.6000, -64.800
 700.8000, -65.041
 701.0000, -64.980
 701.2000, -64.866
 701.4000, -64.882
 701.6000, -64.855
 701.8000, -65.048
 702.0000, -64.670
 702.2000, -64.871
 702.4000, -64.951
 702.6000, -64.607
 702.8000, -64.797
 703.0000, -64.862
 703.2000, -65.048
 703.4000, -64.790
 703.6000, -64.830
 703.8000, -64.987
 704.0000, -65.004
 704.2000, -65.043
 704.4000, -64.720
 704.6000, -65.047
 704.8000, -64.975
 705.0000, -64.856
 705.2000, -65.276
 705.4000, -64.943
 705.6000, -64.633
 705.8000, -64.828
 706.0000, -64.727
 706.2000, -65.232
 706.4000, -64.756
 706.6000, -65.232
 706.8000, -64.727
 707.0000, -65.225
 707.2000, -64.759
 707.4000, -65.152
 707.6000, -65.395
 707.8000, -64.907
 708.0000, -65.042
 708.2000, -65.009
 708.4000, -64.956
 708.6000, -65.214
 708.8000, -65.352
 709.0000, -64.767
 709.2000, -65.311
 709.4000, -64.900
 709.6000, -65.137
 709.8000, -65.501
 710.0000, -65.407
 710.2000, -65.212
 710.4000, -65.545
 710.6000, -64.753
 710.8000, -65.385
 711.0000, -65.464
 711.2000, -65.590
 711.4000, -65.072
 711.6000, -65.299
 711.8000, -65.052
 712.0000, -65.394
 712.2000, -65.178
 712.4000, -65.025
 712.6000, -64.839
 712.8000, -65.262
 713.0000, -65.391
 713.2000, -64.943
 713.4000, -65.459
 713.6000, -65.392
 713.8000, -65.375
 714.0000, -65.165
 714.2000, -65.486
 714.4000, -65.021
 714.6000, -65.195
 714.8000, -64.932
 715.0000, -65.355
 715.2000, -65.171
 715.4000, -65.370
 715.6000, -65.642
 715.8000, -65.329
 716.0000, -65.244
 716.2000, -65.556
 716.4000, -65.422
 716.6000, -65.610
 716.8000, -65.387
 717.0000, -65.242
 717.2000, -65.553
 717.4000, -65.011
 717.6000, -65.238
 717.8000, -65.357
 718.0000, -65.620
 718.2000, -65.661
 718.4000, -65.668
 718.6000, -65.423
 718.8000, -65.121
 719.0000, -65.280
 719.2000, -65.358
 719.4000, -65.393
 719.6000, -65.563
 719.8000, -66.021
 720.0000, -65.376
 720.2000, -65.537
 720.4000, -65.591
 720.6000, -65.523
 720.8000, -65.227
 721.0000, -65.420
 721.2000, -65.720
 721.4000, -65.210
 721.6000, -65.766
 721.8000, -65.399
 722.0000, -65.715
 722.2000, -65.767
 722.4000, -65.586
 722.6000, -65.663
 722.8000, -64.981
 723.0000, -65.754
 723.2000, -65.229
 723.4000, -65.863
 723.6000, -65.551
 723.8000, -65.565
 724.0000, -65.371
 724.2000, -65.750
 724.4000, -65.482
 724.6000, -65.837
 724.8000, -65.504
 725.0000, -65.626
 725.2000, -65.484
 725.4000, -65.533
 725.6000, -65.548
 725.8000, -65.798
 726.0000, -65.372
 726.2000, -65.491
 726.4000, -65.557
 726.6000, -65.778
 726.8000, -65.840
 727.0000, -65.504
 727.2000, -65.710
 727.4000, -65.976
 727.6000, -65.473
 727.8000, -65.983
 728.0000, -65.690
 728.2000, -65.801
 728.4000, -65.736
 728.6000, -65.675
 728.8000, -65.691
 729.0000, -66.259
 729.2000, -65.957
 729.4000, -65.609
 729.6000, -65.533
 729.8000, -65.404
 730.0000, -65.959
 730.2000, -65.753
 730.4000, -65.672
 730.6000, -65.591
 730.8000, -65.640
 731.0000, -65.727
 731.2000, -65.672
 731.4000, -65.337
 731.6000, -65.969
 731.8000, -65.387
 732.0000, -65.640
 732.2000, -65.736
 732.4000, -65.784
 732.6000, -65.990
 732.8000, -66.159
 733.0000, -65.801
 733.2000, -66.368
 733.4000, -65.733
 733.6000, -65.582
 733.8000, -65.933
 734.0000, -65.481
 734.2000, -65.797
 734.4000, -65.465
 734.6000, -65.699
 734.8000, -65.879
 735.0000, -65.821
 735.2000, -65.902
 735.4000, -65.450
 735.6000, -65.901
 735.8000, -65.841
 736.0000, -65.661
 736.2000, -65.688
 736.4000, -65.882
 736.6000, -65.583
 736.8000, -65.854
 737.0000, -65.839
 737.2000, -65.778
 737.4000, -65.993
 737.6000, -65.769
 737.8000, -65.611
 738.0000, -65.984
 738.2000, -66.083
 738.4000, -65.803
 738.6000, -65.639
 738.8000, -66.320
 739.0000, -65.532
 739.2000, -65.510
 739.4000, -65.631
 739.6000, -65.890
 739.8000, -66.082
 740.0000, -66.133
 740.2000, -65.825
 740.4000, -65.904
 740.6000, -65.908
 740.8000, -65.606
 741.0000, -65.960
 741.2000, -65.709
 741.4000, -65.698
 741.6000, -65.650
 741.8000, -65.673
 742.0000, -65.770
 742.2000, -66.010
 742.4000, -65.941
 742.6000, -65.674
 742.8000, -65.859
 743.0000, -65.896
 743.2000, -65.911
 743.4000, -65.846
 743.6000, -65.906
