74CSV  	
// AQ6374 OPTICAL SPECTRUM ANALYZER //                  
35
"CTRWL",1125.000000
"SPAN",1150.000000
"START WL", 550.000000
"STOP WL",1700.000000
"WLFREQ", 0
"REFL",-56.6
"LSCL", 5.0
"RESLN",1.000
"AVG",   1
"SMPLAUTO",      1
"SMPL",       5751
"SMPLINTVL",0.2000
"HIGH1"
"MEAS"
"LSUNT",0
"NMSKH","OFF"
"RESCOR",0
"SMOOTH",0
"MEASWL",1
"SWPSPD",0
"MODELNAME","AQ6374"
"CHGPT",        102
"RESCAL0_0",       9996
"RESCAL0_1",       -866
"RESCAL0_2",    1341521
"RESCAL1_0",      10053
"RESCAL1_1",          0
"RESCAL1_2",          0
"CORESIZE", 0






"[TRACE DATA]"
 550.0000, -70.202
 550.2000, -68.045
 550.4000, -70.489
 550.6000,-210.000
 550.8000, -78.784
 551.0000,-210.000
 551.2000,-210.000
 551.4000, -70.642
 551.6000, -71.032
 551.8000, -78.867
 552.0000,-210.000
 552.2000, -78.040
 552.4000, -74.223
 552.6000, -73.446
 552.8000, -70.821
 553.0000,-210.000
 553.2000, -73.364
 553.4000, -70.474
 553.6000, -75.555
 553.8000, -84.458
 554.0000, -66.869
 554.2000, -69.058
 554.4000, -69.239
 554.6000,-210.000
 554.8000, -74.812
 555.0000, -68.019
 555.2000, -68.202
 555.4000, -66.537
 555.6000,-210.000
 555.8000, -72.005
 556.0000, -70.477
 556.2000, -69.604
 556.4000, -65.938
 556.6000, -73.262
 556.8000,-210.000
 557.0000, -67.101
 557.2000,-210.000
 557.4000, -72.021
 557.6000, -68.624
 557.8000, -73.185
 558.0000, -68.663
 558.2000, -68.145
 558.4000,-210.000
 558.6000, -66.727
 558.8000, -67.015
 559.0000, -67.948
 559.2000, -68.842
 559.4000, -67.689
 559.6000, -73.237
 559.8000, -71.282
 560.0000,-210.000
 560.2000,-210.000
 560.4000, -70.199
 560.6000, -75.370
 560.8000, -88.180
 561.0000, -70.123
 561.2000, -68.001
 561.4000, -68.525
 561.6000, -71.165
 561.8000, -81.192
 562.0000,-210.000
 562.2000, -69.631
 562.4000, -72.031
 562.6000, -71.172
 562.8000, -71.013
 563.0000, -70.659
 563.2000, -77.852
 563.4000, -71.542
 563.6000, -67.114
 563.8000, -66.764
 564.0000, -68.842
 564.2000, -69.857
 564.4000, -70.261
 564.6000, -72.153
 564.8000, -70.667
 565.0000, -76.228
 565.2000, -69.251
 565.4000, -69.070
 565.6000, -69.718
 565.8000, -77.144
 566.0000, -70.263
 566.2000,-210.000
 566.4000, -70.016
 566.6000,-210.000
 566.8000, -66.362
 567.0000, -71.395
 567.2000, -77.048
 567.4000, -71.999
 567.6000,-210.000
 567.8000, -69.062
 568.0000, -66.128
 568.2000,-210.000
 568.4000, -70.576
 568.6000, -71.596
 568.8000, -70.131
 569.0000, -66.837
 569.2000, -65.981
 569.4000, -68.667
 569.6000, -77.347
 569.8000, -72.257
 570.0000, -67.971
 570.2000, -68.429
 570.4000, -69.005
 570.6000, -69.558
 570.8000, -66.691
 571.0000, -67.728
 571.2000, -67.796
 571.4000, -67.445
 571.6000, -68.205
 571.8000, -71.307
 572.0000, -69.084
 572.2000, -69.362
 572.4000, -66.843
 572.6000, -68.425
 572.8000, -68.064
 573.0000, -69.678
 573.2000, -67.834
 573.4000, -66.892
 573.6000, -65.209
 573.8000, -68.098
 574.0000, -66.851
 574.2000, -66.421
 574.4000, -66.247
 574.6000, -67.299
 574.8000, -66.332
 575.0000, -68.715
 575.2000, -68.295
 575.4000, -69.211
 575.6000, -69.114
 575.8000, -67.180
 576.0000, -65.185
 576.2000, -67.811
 576.4000, -65.785
 576.6000, -65.478
 576.8000, -67.266
 577.0000, -66.525
 577.2000, -65.138
 577.4000, -67.664
 577.6000, -66.613
 577.8000, -66.108
 578.0000, -65.959
 578.2000, -65.596
 578.4000, -65.857
 578.6000, -67.886
 578.8000, -65.959
 579.0000, -66.435
 579.2000, -66.520
 579.4000, -65.493
 579.6000, -66.001
 579.8000, -65.329
 580.0000, -65.448
 580.2000, -65.312
 580.4000, -65.033
 580.6000, -65.781
 580.8000, -65.586
 581.0000, -67.063
 581.2000, -65.043
 581.4000, -66.224
 581.6000, -65.390
 581.8000, -66.259
 582.0000, -66.827
 582.2000, -64.584
 582.4000, -64.649
 582.6000, -64.681
 582.8000, -65.164
 583.0000, -64.392
 583.2000, -64.831
 583.4000, -64.416
 583.6000, -64.631
 583.8000, -63.989
 584.0000, -64.261
 584.2000, -64.535
 584.4000, -65.395
 584.6000, -65.979
 584.8000, -64.917
 585.0000, -64.707
 585.2000, -63.445
 585.4000, -64.512
 585.6000, -64.057
 585.8000, -64.774
 586.0000, -64.169
 586.2000, -64.335
 586.4000, -63.367
 586.6000, -64.640
 586.8000, -64.990
 587.0000, -63.840
 587.2000, -63.614
 587.4000, -63.338
 587.6000, -63.876
 587.8000, -64.035
 588.0000, -63.428
 588.2000, -62.846
 588.4000, -63.800
 588.6000, -63.179
 588.8000, -63.568
 589.0000, -63.442
 589.2000, -63.426
 589.4000, -62.365
 589.6000, -63.171
 589.8000, -63.303
 590.0000, -63.214
 590.2000, -62.681
 590.4000, -62.703
 590.6000, -62.709
 590.8000, -62.788
 591.0000, -62.592
 591.2000, -62.302
 591.4000, -62.846
 591.6000, -62.899
 591.8000, -61.679
 592.0000, -62.706
 592.2000, -62.441
 592.4000, -62.758
 592.6000, -62.427
 592.8000, -62.255
 593.0000, -62.029
 593.2000, -62.666
 593.4000, -61.960
 593.6000, -62.236
 593.8000, -62.400
 594.0000, -62.250
 594.2000, -61.752
 594.4000, -61.741
 594.6000, -61.568
 594.8000, -61.499
 595.0000, -61.264
 595.2000, -61.331
 595.4000, -61.804
 595.6000, -61.280
 595.8000, -61.194
 596.0000, -61.376
 596.2000, -60.834
 596.4000, -61.227
 596.6000, -61.369
 596.8000, -61.283
 597.0000, -60.905
 597.2000, -60.736
 597.4000, -60.685
 597.6000, -61.104
 597.8000, -60.569
 598.0000, -61.172
 598.2000, -60.630
 598.4000, -61.106
 598.6000, -60.800
 598.8000, -60.788
 599.0000, -60.816
 599.2000, -60.544
 599.4000, -60.410
 599.6000, -60.359
 599.8000, -60.613
 600.0000, -60.398
 600.2000, -60.258
 600.4000, -60.219
 600.6000, -60.198
 600.8000, -59.983
 601.0000, -60.037
 601.2000, -59.813
 601.4000, -60.009
 601.6000, -59.835
 601.8000, -59.837
 602.0000, -59.583
 602.2000, -60.013
 602.4000, -59.682
 602.6000, -59.611
 602.8000, -59.593
 603.0000, -59.989
 603.2000, -59.751
 603.4000, -59.820
 603.6000, -59.565
 603.8000, -59.575
 604.0000, -59.327
 604.2000, -59.270
 604.4000, -59.557
 604.6000, -59.421
 604.8000, -59.369
 605.0000, -59.271
 605.2000, -59.015
 605.4000, -59.216
 605.6000, -59.015
 605.8000, -58.920
 606.0000, -58.649
 606.2000, -58.704
 606.4000, -58.555
 606.6000, -58.696
 606.8000, -58.546
 607.0000, -58.672
 607.2000, -58.552
 607.4000, -58.340
 607.6000, -58.492
 607.8000, -58.247
 608.0000, -58.400
 608.2000, -58.386
 608.4000, -58.346
 608.6000, -58.113
 608.8000, -58.216
 609.0000, -58.222
 609.2000, -58.308
 609.4000, -57.953
 609.6000, -58.051
 609.8000, -57.998
 610.0000, -57.821
 610.2000, -57.799
 610.4000, -57.560
 610.6000, -57.739
 610.8000, -57.743
 611.0000, -57.622
 611.2000, -57.582
 611.4000, -57.409
 611.6000, -57.278
 611.8000, -57.269
 612.0000, -57.395
 612.2000, -57.214
 612.4000, -57.032
 612.6000, -57.095
 612.8000, -57.140
 613.0000, -57.081
 613.2000, -56.937
 613.4000, -56.848
 613.6000, -56.823
 613.8000, -56.757
 614.0000, -57.035
 614.2000, -56.754
 614.4000, -56.860
 614.6000, -56.702
 614.8000, -56.663
 615.0000, -56.671
 615.2000, -56.548
 615.4000, -56.516
 615.6000, -56.472
 615.8000, -56.453
 616.0000, -56.343
 616.2000, -56.248
 616.4000, -56.155
 616.6000, -56.278
 616.8000, -56.092
 617.0000, -56.081
 617.2000, -55.864
 617.4000, -55.789
 617.6000, -55.893
 617.8000, -55.684
 618.0000, -55.707
 618.2000, -55.759
 618.4000, -55.704
 618.6000, -55.495
 618.8000, -55.583
 619.0000, -55.530
 619.2000, -55.450
 619.4000, -55.518
 619.6000, -55.357
 619.8000, -55.381
 620.0000, -55.361
 620.2000, -55.205
 620.4000, -55.099
 620.6000, -55.113
 620.8000, -55.093
 621.0000, -55.127
 621.2000, -54.985
 621.4000, -54.981
 621.6000, -54.931
 621.8000, -54.713
 622.0000, -54.614
 622.2000, -54.731
 622.4000, -54.700
 622.6000, -54.654
 622.8000, -54.612
 623.0000, -54.578
 623.2000, -54.383
 623.4000, -54.463
 623.6000, -54.426
 623.8000, -54.400
 624.0000, -54.293
 624.2000, -54.228
 624.4000, -54.137
 624.6000, -53.977
 624.8000, -54.121
 625.0000, -54.066
 625.2000, -53.943
 625.4000, -53.892
 625.6000, -54.039
 625.8000, -53.846
 626.0000, -53.780
 626.2000, -53.776
 626.4000, -53.716
 626.6000, -53.708
 626.8000, -53.717
 627.0000, -53.569
 627.2000, -53.565
 627.4000, -53.591
 627.6000, -53.528
 627.8000, -53.531
 628.0000, -53.421
 628.2000, -53.355
 628.4000, -53.351
 628.6000, -53.197
 628.8000, -53.312
 629.0000, -53.108
 629.2000, -53.043
 629.4000, -53.181
 629.6000, -53.144
 629.8000, -52.950
 630.0000, -53.028
 630.2000, -52.838
 630.4000, -52.778
 630.6000, -52.747
 630.8000, -52.760
 631.0000, -52.763
 631.2000, -52.612
 631.4000, -52.649
 631.6000, -52.581
 631.8000, -52.717
 632.0000, -52.517
 632.2000, -52.501
 632.4000, -52.358
 632.6000, -52.344
 632.8000, -52.237
 633.0000, -52.396
 633.2000, -52.288
 633.4000, -52.227
 633.6000, -52.259
 633.8000, -52.183
 634.0000, -52.148
 634.2000, -52.060
 634.4000, -52.034
 634.6000, -51.970
 634.8000, -52.013
 635.0000, -51.894
 635.2000, -51.876
 635.4000, -51.851
 635.6000, -51.809
 635.8000, -51.819
 636.0000, -51.668
 636.2000, -51.767
 636.4000, -51.653
 636.6000, -51.672
 636.8000, -51.533
 637.0000, -51.519
 637.2000, -51.506
 637.4000, -51.547
 637.6000, -51.516
 637.8000, -51.492
 638.0000, -51.373
 638.2000, -51.249
 638.4000, -51.334
 638.6000, -51.329
 638.8000, -51.248
 639.0000, -51.164
 639.2000, -51.175
 639.4000, -51.138
 639.6000, -51.129
 639.8000, -51.030
 640.0000, -51.054
 640.2000, -50.916
 640.4000, -51.034
 640.6000, -50.930
 640.8000, -50.917
 641.0000, -50.917
 641.2000, -50.896
 641.4000, -50.730
 641.6000, -50.733
 641.8000, -50.746
 642.0000, -50.844
 642.2000, -50.636
 642.4000, -50.667
 642.6000, -50.767
 642.8000, -50.592
 643.0000, -50.542
 643.2000, -50.631
 643.4000, -50.454
 643.6000, -50.455
 643.8000, -50.491
 644.0000, -50.418
 644.2000, -50.466
 644.4000, -50.430
 644.6000, -50.353
 644.8000, -50.320
 645.0000, -50.246
 645.2000, -50.472
 645.4000, -50.378
 645.6000, -50.345
 645.8000, -50.242
 646.0000, -50.295
 646.2000, -50.190
 646.4000, -50.227
 646.6000, -50.183
 646.8000, -50.252
 647.0000, -50.107
 647.2000, -50.095
 647.4000, -50.070
 647.6000, -50.002
 647.8000, -50.000
 648.0000, -50.031
 648.2000, -49.943
 648.4000, -49.933
 648.6000, -49.860
 648.8000, -49.972
 649.0000, -49.860
 649.2000, -49.854
 649.4000, -49.846
 649.6000, -49.855
 649.8000, -49.791
 650.0000, -49.803
 650.2000, -49.777
 650.4000, -49.617
 650.6000, -49.663
 650.8000, -49.645
 651.0000, -49.674
 651.2000, -49.596
 651.4000, -49.590
 651.6000, -49.583
 651.8000, -49.586
 652.0000, -49.556
 652.2000, -49.538
 652.4000, -49.577
 652.6000, -49.530
 652.8000, -49.447
 653.0000, -49.455
 653.2000, -49.472
 653.4000, -49.439
 653.6000, -49.443
 653.8000, -49.339
 654.0000, -49.288
 654.2000, -49.403
 654.4000, -49.270
 654.6000, -49.355
 654.8000, -49.263
 655.0000, -49.260
 655.2000, -49.200
 655.4000, -49.256
 655.6000, -49.216
 655.8000, -49.185
 656.0000, -49.292
 656.2000, -49.184
 656.4000, -49.049
 656.6000, -49.114
 656.8000, -49.209
 657.0000, -49.123
 657.2000, -49.107
 657.4000, -49.195
 657.6000, -49.055
 657.8000, -48.972
 658.0000, -49.080
 658.2000, -49.045
 658.4000, -48.943
 658.6000, -48.976
 658.8000, -49.045
 659.0000, -49.159
 659.2000, -48.868
 659.4000, -48.991
 659.6000, -48.885
 659.8000, -49.010
 660.0000, -48.947
 660.2000, -48.922
 660.4000, -48.892
 660.6000, -48.883
 660.8000, -48.907
 661.0000, -48.739
 661.2000, -48.877
 661.4000, -48.765
 661.6000, -48.869
 661.8000, -48.889
 662.0000, -48.681
 662.2000, -48.907
 662.4000, -48.710
 662.6000, -48.821
 662.8000, -48.764
 663.0000, -48.685
 663.2000, -48.698
 663.4000, -48.679
 663.6000, -48.703
 663.8000, -48.757
 664.0000, -48.577
 664.2000, -48.622
 664.4000, -48.640
 664.6000, -48.565
 664.8000, -48.542
 665.0000, -48.620
 665.2000, -48.532
 665.4000, -48.542
 665.6000, -48.513
 665.8000, -48.485
 666.0000, -48.449
 666.2000, -48.597
 666.4000, -48.556
 666.6000, -48.415
 666.8000, -48.516
 667.0000, -48.484
 667.2000, -48.426
 667.4000, -48.432
 667.6000, -48.408
 667.8000, -48.409
 668.0000, -48.580
 668.2000, -48.545
 668.4000, -48.391
 668.6000, -48.449
 668.8000, -48.350
 669.0000, -48.433
 669.2000, -48.437
 669.4000, -48.456
 669.6000, -48.418
 669.8000, -48.390
 670.0000, -48.435
 670.2000, -48.365
 670.4000, -48.324
 670.6000, -48.276
 670.8000, -48.362
 671.0000, -48.342
 671.2000, -48.303
 671.4000, -48.273
 671.6000, -48.341
 671.8000, -48.183
 672.0000, -48.308
 672.2000, -48.222
 672.4000, -48.249
 672.6000, -48.189
 672.8000, -48.228
 673.0000, -48.206
 673.2000, -48.176
 673.4000, -48.322
 673.6000, -48.221
 673.8000, -48.251
 674.0000, -48.128
 674.2000, -48.194
 674.4000, -48.161
 674.6000, -48.211
 674.8000, -48.222
 675.0000, -48.225
 675.2000, -48.118
 675.4000, -48.089
 675.6000, -48.182
 675.8000, -48.112
 676.0000, -48.044
 676.2000, -48.065
 676.4000, -48.160
 676.6000, -48.034
 676.8000, -48.209
 677.0000, -48.042
 677.2000, -48.185
 677.4000, -48.162
 677.6000, -48.118
 677.8000, -48.081
 678.0000, -48.180
 678.2000, -48.097
 678.4000, -48.088
 678.6000, -48.205
 678.8000, -48.112
 679.0000, -48.042
 679.2000, -48.049
 679.4000, -48.081
 679.6000, -48.067
 679.8000, -48.207
 680.0000, -48.119
 680.2000, -48.082
 680.4000, -48.163
 680.6000, -47.949
 680.8000, -47.961
 681.0000, -48.042
 681.2000, -48.036
 681.4000, -47.985
 681.6000, -48.023
 681.8000, -47.979
 682.0000, -47.991
 682.2000, -48.034
 682.4000, -47.949
 682.6000, -47.937
 682.8000, -48.040
 683.0000, -48.077
 683.2000, -47.963
 683.4000, -48.191
 683.6000, -48.058
 683.8000, -48.024
 684.0000, -47.881
 684.2000, -47.913
 684.4000, -47.992
 684.6000, -47.943
 684.8000, -48.061
 685.0000, -47.957
 685.2000, -48.064
 685.4000, -48.075
 685.6000, -48.067
 685.8000, -47.983
 686.0000, -48.007
 686.2000, -48.016
 686.4000, -47.873
 686.6000, -47.914
 686.8000, -48.137
 687.0000, -48.001
 687.2000, -47.930
 687.4000, -47.959
 687.6000, -47.885
 687.8000, -47.902
 688.0000, -47.913
 688.2000, -47.909
 688.4000, -47.869
 688.6000, -48.068
 688.8000, -47.980
 689.0000, -47.999
 689.2000, -47.935
 689.4000, -48.065
 689.6000, -48.009
 689.8000, -47.881
 690.0000, -47.952
 690.2000, -47.967
 690.4000, -48.047
 690.6000, -47.897
 690.8000, -48.024
 691.0000, -47.974
 691.2000, -47.991
 691.4000, -47.999
 691.6000, -47.932
 691.8000, -47.952
 692.0000, -47.942
 692.2000, -48.084
 692.4000, -48.002
 692.6000, -47.957
 692.8000, -47.917
 693.0000, -48.039
 693.2000, -47.952
 693.4000, -48.000
 693.6000, -48.096
 693.8000, -48.048
 694.0000, -47.949
 694.2000, -48.009
 694.4000, -47.991
 694.6000, -48.126
 694.8000, -48.135
 695.0000, -48.086
 695.2000, -48.095
 695.4000, -47.989
 695.6000, -47.957
 695.8000, -47.989
 696.0000, -48.026
 696.2000, -47.985
 696.4000, -48.105
 696.6000, -48.151
 696.8000, -48.009
 697.0000, -48.097
 697.2000, -48.003
 697.4000, -48.102
 697.6000, -48.118
 697.8000, -48.105
 698.0000, -47.993
 698.2000, -48.050
 698.4000, -48.055
 698.6000, -48.117
 698.8000, -48.176
 699.0000, -48.061
 699.2000, -48.096
 699.4000, -48.117
 699.6000, -48.160
 699.8000, -48.106
 700.0000, -48.339
 700.2000, -48.225
 700.4000, -48.125
 700.6000, -48.066
 700.8000, -48.283
 701.0000, -48.294
 701.2000, -48.100
 701.4000, -48.103
 701.6000, -48.093
 701.8000, -48.165
 702.0000, -48.108
 702.2000, -48.164
 702.4000, -48.212
 702.6000, -48.273
 702.8000, -48.300
 703.0000, -48.318
 703.2000, -48.321
 703.4000, -48.182
 703.6000, -48.244
 703.8000, -48.161
 704.0000, -48.158
 704.2000, -48.209
 704.4000, -48.208
 704.6000, -48.207
 704.8000, -48.296
 705.0000, -48.311
 705.2000, -48.195
 705.4000, -48.305
 705.6000, -48.316
 705.8000, -48.438
 706.0000, -48.303
 706.2000, -48.384
 706.4000, -48.421
 706.6000, -48.428
 706.8000, -48.411
 707.0000, -48.419
 707.2000, -48.342
 707.4000, -48.439
 707.6000, -48.445
 707.8000, -48.494
 708.0000, -48.425
 708.2000, -48.422
 708.4000, -48.471
 708.6000, -48.403
 708.8000, -48.489
 709.0000, -48.520
 709.2000, -48.538
 709.4000, -48.604
 709.6000, -48.544
 709.8000, -48.649
 710.0000, -48.510
 710.2000, -48.588
 710.4000, -48.555
 710.6000, -48.582
 710.8000, -48.508
 711.0000, -48.560
 711.2000, -48.626
 711.4000, -48.655
 711.6000, -48.579
 711.8000, -48.558
 712.0000, -48.623
 712.2000, -48.651
 712.4000, -48.725
 712.6000, -48.738
 712.8000, -48.851
 713.0000, -48.607
 713.2000, -48.752
 713.4000, -48.897
 713.6000, -48.765
 713.8000, -48.735
 714.0000, -48.818
 714.2000, -48.876
 714.4000, -48.671
 714.6000, -48.896
 714.8000, -48.747
 715.0000, -48.852
 715.2000, -48.824
 715.4000, -49.014
 715.6000, -48.747
 715.8000, -48.820
 716.0000, -48.892
 716.2000, -48.736
 716.4000, -48.856
 716.6000, -48.853
 716.8000, -49.033
 717.0000, -48.828
 717.2000, -49.031
 717.4000, -48.935
 717.6000, -48.923
 717.8000, -48.850
 718.0000, -49.032
 718.2000, -49.041
 718.4000, -49.185
 718.6000, -48.977
 718.8000, -49.200
 719.0000, -49.096
 719.2000, -49.176
 719.4000, -49.161
 719.6000, -49.113
 719.8000, -49.149
 720.0000, -48.949
 720.2000, -49.243
 720.4000, -49.066
 720.6000, -49.230
 720.8000, -49.115
 721.0000, -49.189
 721.2000, -49.094
 721.4000, -49.266
 721.6000, -49.173
 721.8000, -49.134
 722.0000, -49.235
 722.2000, -49.211
 722.4000, -49.254
 722.6000, -49.210
 722.8000, -49.346
 723.0000, -49.211
 723.2000, -49.410
 723.4000, -49.336
 723.6000, -49.333
 723.8000, -49.248
 724.0000, -49.317
 724.2000, -49.208
 724.4000, -49.375
 724.6000, -49.332
 724.8000, -49.419
 725.0000, -49.330
 725.2000, -49.346
 725.4000, -49.428
 725.6000, -49.444
 725.8000, -49.434
 726.0000, -49.295
 726.2000, -49.457
 726.4000, -49.460
 726.6000, -49.570
 726.8000, -49.488
 727.0000, -49.568
 727.2000, -49.431
 727.4000, -49.501
 727.6000, -49.576
 727.8000, -49.612
 728.0000, -49.600
 728.2000, -49.528
 728.4000, -49.577
 728.6000, -49.625
 728.8000, -49.575
 729.0000, -49.548
 729.2000, -49.691
 729.4000, -49.591
 729.6000, -49.643
 729.8000, -49.632
 730.0000, -49.727
 730.2000, -49.595
 730.4000, -49.752
 730.6000, -49.639
 730.8000, -49.625
 731.0000, -49.590
 731.2000, -49.716
 731.4000, -49.757
 731.6000, -49.716
 731.8000, -49.837
 732.0000, -49.687
 732.2000, -49.818
 732.4000, -49.698
 732.6000, -49.832
 732.8000, -49.764
 733.0000, -49.895
 733.2000, -49.833
 733.4000, -49.870
 733.6000, -49.830
 733.8000, -49.775
 734.0000, -49.915
 734.2000, -49.905
 734.4000, -49.949
 734.6000, -49.883
 734.8000, -50.030
 735.0000, -49.996
 735.2000, -49.961
 735.4000, -49.998
 735.6000, -49.937
 735.8000, -49.973
 736.0000, -49.970
 736.2000, -49.999
 736.4000, -49.988
 736.6000, -49.955
 736.8000, -50.035
 737.0000, -50.055
 737.2000, -49.912
 737.4000, -50.025
 737.6000, -50.051
 737.8000, -49.989
 738.0000, -50.192
 738.2000, -50.110
 738.4000, -50.073
 738.6000, -50.188
 738.8000, -50.079
 739.0000, -50.062
 739.2000, -50.168
 739.4000, -50.200
 739.6000, -50.191
 739.8000, -50.118
 740.0000, -50.189
 740.2000, -50.393
 740.4000, -50.155
 740.6000, -50.307
 740.8000, -50.121
 741.0000, -50.386
 741.2000, -50.200
 741.4000, -50.381
 741.6000, -50.338
 741.8000, -50.323
 742.0000, -50.363
 742.2000, -50.325
 742.4000, -50.321
 742.6000, -50.355
 742.8000, -50.422
 743.0000, -50.332
 743.2000, -50.289
 743.4000, -50.305
 743.6000, -50.340
